timestamp_ms,channel,sample_0,sample_1,sample_2,sample_3,sample_4,sample_5,sample_6,sample_7,sample_8,sample_9,sample_10,sample_11
1771936189387,TP10,54.6875,55.6641,-16.1133,-30.7617,40.5273,83.9844,25.8789,-14.1602,25.8789,84.9609,29.2969,-31.7383
1771936189387,AF8,8.7891,8.3008,24.9023,25.8789,26.3672,33.2031,45.4102,41.0156,18.5547,15.6250,28.8086,37.1094
1771936189387,TP9,63.9648,74.7070,20.9961,10.2539,70.8008,98.6328,52.2461,18.5547,45.4102,93.7500,48.8281,-9.2773
1771936189388,AF7,17.5781,13.1836,33.6914,37.5977,30.7617,46.3867,71.7773,60.0586,35.1563,24.4141,31.7383,40.5273
1771936189431,TP10,18.5547,83.4961,51.2695,-11.2305,0.9766,74.2188,64.9414,-6.3477,-12.2070,47.3633,70.3125,15.1367
1771936189432,AF8,43.4570,38.5742,41.5039,52.7344,59.0820,38.0859,14.6484,20.9961,37.1094,31.7383,12.2070,33.2031
1771936189432,TP9,24.4141,84.4727,64.9414,9.2773,27.3438,90.8203,84.4727,20.0195,14.1602,64.9414,83.9844,46.3867
1771936189433,AF7,46.8750,40.5273,46.3867,56.1523,63.9648,68.3594,49.3164,37.1094,38.5742,32.2266,29.2969,50.2930
1771936189478,TP9,17.5781,46.8750,84.4727,48.3398,8.3008,28.3203,73.2422,63.4766,21.9727,15.6250,57.6172,84.9609
1771936189478,TP10,-18.0664,17.5781,64.4531,25.3906,-17.0898,9.7656,61.0352,51.2695,7.8125,3.4180,49.3164,70.8008
1771936189478,AF8,56.1523,46.8750,28.3203,33.6914,45.4102,45.4102,25.3906,25.3906,56.1523,51.7578,18.0664,25.3906
1771936189478,AF7,63.9648,59.5703,49.8047,40.0391,40.5273,46.3867,29.7852,30.7617,54.1992,49.8047,23.9258,34.6680
1771936189521,TP10,19.0430,-17.5781,41.5039,96.1914,36.6211,-2.9297,23.4375,72.2656,40.5273,-28.3203,-10.2539,60.0586
1771936189521,AF8,50.2930,39.5508,32.2266,35.6445,44.4336,56.1523,42.4805,41.5039,49.8047,35.1563,34.1797,16.1133
1771936189522,TP9,37.5977,-3.9063,41.9922,94.2383,51.7578,17.5781,38.5742,93.7500,62.9883,-13.1836,6.3477,74.7070
1771936189522,AF7,55.1758,36.6211,27.3438,31.7383,44.9219,61.5234,51.2695,42.4805,43.9453,36.6211,37.1094,27.8320
1771936189567,TP9,76.6602,30.2734,8.3008,44.4336,76.1719,35.6445,2.4414,45.8984,69.8242,16.6016,0.9766,18.5547
1771936189567,TP10,60.5469,13.1836,0.0000,39.0625,60.5469,11.2305,-16.1133,30.7617,67.8711,10.2539,-18.5547,1.4648
1771936189567,AF8,7.3242,38.0859,42.4805,12.6953,11.2305,40.0391,32.7148,13.6719,3.4180,19.0430,37.1094,22.4609
1771936189568,AF7,33.2031,69.8242,63.9648,20.0195,20.9961,48.3398,43.4570,30.7617,17.5781,35.6445,57.1289,36.6211
1771936189611,TP10,41.9922,23.4375,-28.3203,-6.8359,49.8047,41.0156,-9.7656,-2.4414,49.3164,76.1719,7.8125,-23.9258
1771936189611,AF8,15.6250,26.8555,37.1094,31.2500,17.0898,23.4375,46.8750,54.1992,38.5742,33.2031,48.3398,52.2461
1771936189612,TP9,62.0117,47.3633,2.9297,17.0898,64.4531,62.9883,7.8125,1.9531,53.7109,86.4258,30.2734,-8.3008
1771936189613,AF7,19.0430,35.6445,47.8516,46.8750,39.0625,35.1563,53.7109,55.1758,37.5977,41.0156,51.7578,55.1758
1771936189656,TP10,20.5078,53.2227,22.9492,-21.9727,10.7422,79.5898,42.9688,-25.3906,-18.0664,45.8984,56.1523,-5.8594
1771936189656,AF8,38.5742,20.5078,34.6680,53.2227,53.2227,34.6680,34.6680,50.7813,45.4102,30.7617,32.7148,48.8281
1771936189657,TP9,31.2500,77.1484,50.7813,0.0000,20.9961,92.2852,64.4531,-7.8125,-6.3477,52.7344,69.8242,19.5313
1771936189658,AF7,45.8984,23.9258,40.5273,55.1758,47.3633,33.2031,34.1797,43.9453,41.0156,28.3203,30.2734,50.2930
1771936189705,TP10,-20.0195,41.0156,76.6602,18.0664,-6.8359,42.9688,76.6602,26.3672,-23.4375,8.7891,75.1953,46.8750
1771936189705,AF8,49.8047,41.0156,37.5977,51.2695,63.9648,53.7109,25.8789,23.4375,36.1328,39.0625,31.2500,41.5039
1771936189705,TP9,1.4648,55.6641,86.9141,36.1328,9.7656,52.7344,93.2617,48.3398,6.3477,26.3672,80.5664,66.4063
1771936189716,AF7,46.8750,39.0625,30.7617,36.6211,58.5938,54.6875,36.6211,40.5273,45.4102,43.9453,30.2734,34.1797
1771936189762,TP10,-17.0898,7.3242,69.3359,59.5703,11.7188,11.7188,51.7578,79.5898,35.6445,-3.9063,23.4375,75.1953
1771936189762,AF8,63.9648,77.6367,41.9922,6.8359,34.6680,53.2227,40.0391,31.7383,44.4336,54.1992,45.8984,33.6914
1771936189763,TP9,9.2773,16.6016,68.8477,73.7305,28.3203,19.5313,59.5703,82.0313,47.8516,19.0430,44.4336,101.0742
1771936189764,AF7,53.2227,62.5000,44.9219,27.3438,41.9922,51.7578,38.5742,24.4141,45.4102,73.2422,57.6172,34.1797
1771936189806,TP10,42.4805,-17.0898,-6.3477,57.6172,59.0820,-0.4883,-8.7891,46.3867,67.8711,16.1133,-20.5078,41.0156
1771936189806,AF8,45.4102,48.3398,35.6445,20.0195,37.1094,63.4766,59.5703,22.9492,22.9492,54.1992,47.8516,47.3633
1771936189807,TP9,79.5898,21.4844,12.6953,61.5234,69.3359,19.5313,12.2070,53.7109,90.3320,52.2461,3.4180,46.8750
1771936189807,AF7,46.8750,49.8047,31.7383,18.5547,32.2266,58.1055,56.6406,26.3672,30.7617,53.7109,50.7813,47.8516
1771936189851,TP10,85.9375,9.7656,-30.2734,6.3477,64.9414,53.2227,-2.9297,-2.9297,50.2930,38.0859,-20.9961,-21.9727
1771936189851,AF8,41.5039,32.7148,36.1328,23.4375,13.1836,35.1563,45.4102,34.1797,25.3906,27.3438,39.5508,41.9922
1771936189852,TP9,90.3320,33.2031,-10.2539,9.7656,63.9648,59.5703,22.9492,24.4141,79.5898,70.3125,3.9063,4.8828
1771936189853,AF7,34.1797,30.2734,41.9922,29.2969,13.1836,35.6445,56.6406,52.7344,40.0391,35.1563,42.4805,36.1328
1771936189898,TP10,30.7617,56.1523,-0.4883,-20.0195,25.8789,70.8008,37.5977,-2.9297,7.8125,48.8281,40.0391,-18.0664
1771936189898,AF8,16.6016,7.3242,19.5313,32.2266,23.4375,18.5547,38.0859,59.5703,40.5273,-2.9297,14.6484,35.6445
1771936189899,TP9,43.4570,71.7773,24.4141,-0.9766,42.4805,86.4258,46.3867,15.6250,31.7383,63.4766,55.1758,-3.4180
1771936189899,AF7,14.1602,12.2070,29.7852,43.9453,38.5742,27.8320,38.0859,63.4766,48.8281,7.8125,20.5078,44.9219
1771936189942,TP10,-14.6484,50.2930,57.1289,8.3008,-3.4180,44.4336,68.3594,2.9297,-32.7148,11.7188,63.9648,35.6445
1771936189943,AF8,30.7617,7.8125,12.6953,49.8047,50.7813,26.8555,11.7188,16.1133,29.2969,36.1328,23.9258,26.3672
1771936189943,TP9,-2.9297,46.3867,56.1523,21.4844,5.8594,44.9219,69.8242,22.9492,-11.7188,12.2070,73.2422,57.1289
1771936189944,AF7,36.6211,17.0898,25.8789,59.5703,57.6172,20.5078,3.9063,19.0430,31.2500,27.8320,29.2969,50.7813
1771936189987,TP10,-9.7656,-2.9297,53.7109,23.4375,-41.9922,-24.4141,34.6680,35.1563,-36.6211,-51.2695,3.4180,14.1602
1771936189987,AF8,46.3867,43.9453,29.7852,26.3672,40.0391,46.3867,36.6211,41.0156,51.2695,43.9453,35.1563,47.3633
1771936189988,TP9,5.8594,11.7188,68.3594,62.5000,0.9766,0.0000,65.9180,82.0313,18.0664,-11.2305,29.2969,57.1289
1771936189989,AF7,68.3594,46.8750,23.9258,30.2734,44.9219,44.4336,37.1094,41.9922,59.5703,64.4531,35.6445,20.0195
1771936190032,TP9,3.9063,-25.8789,0.9766,52.7344,36.1328,-2.9297,7.8125,47.3633,28.3203,-16.1133,-20.0195,17.5781
1771936190032,AF8,64.9414,63.4766,44.4336,29.7852,46.8750,67.8711,78.1250,57.1289,41.5039,53.2227,50.7813,33.6914
1771936190032,TP10,-52.7344,-77.6367,-43.9453,4.8828,-26.8555,-65.9180,-36.6211,6.3477,-23.4375,-72.2656,-61.0352,-14.1602
1771936190033,AF7,42.9688,53.7109,40.5273,25.3906,40.5273,66.8945,56.1523,26.8555,21.4844,40.0391,40.5273,19.0430
1771936190078,TP10,1.9531,-50.7813,-76.1719,-16.6016,26.8555,-32.7148,-64.4531,-29.2969,24.4141,0.0000,-54.6875,-39.0625
1771936190091,AF8,35.6445,57.1289,52.2461,51.7578,56.6406,57.6172,58.1055,45.8984,37.5977,48.8281,50.7813,38.5742
1771936190091,TP9,37.1094,-6.8359,-22.4609,23.9258,61.5234,22.9492,-4.3945,12.2070,56.1523,43.9453,-3.4180,7.3242
1771936190092,AF7,17.0898,35.1563,37.5977,38.0859,32.2266,29.7852,45.8984,40.0391,19.0430,32.7148,45.8984,39.5508
1771936190151,TP10,19.0430,22.9492,-26.3672,-36.1328,18.0664,46.8750,-7.8125,-33.2031,17.0898,65.4297,8.7891,-24.9023
1771936190151,AF8,34.1797,45.8984,57.1289,35.1563,10.7422,17.0898,41.0156,47.8516,45.8984,40.5273,28.3203,41.0156
1771936190152,TP9,66.8945,74.2188,22.9492,-3.4180,35.1563,77.1484,35.6445,8.7891,56.1523,108.8867,55.1758,6.8359
1771936190153,AF7,36.1328,53.2227,54.1992,25.8789,7.3242,8.7891,32.2266,48.3398,49.3164,36.6211,22.9492,36.1328
1771936190182,TP10,27.3438,66.4063,35.6445,-13.1836,4.8828,72.2656,53.7109,-9.7656,-3.9063,52.7344,82.0313,20.5078
1771936190182,TP9,42.9688,93.2617,79.5898,33.2031,38.5742,98.1445,100.5859,30.7617,24.4141,78.1250,101.5625,52.2461
1771936190182,AF8,44.9219,6.3477,4.8828,30.2734,32.2266,16.6016,8.3008,18.0664,30.7617,16.6016,2.4414,30.7617
1771936190183,AF7,37.1094,15.6250,27.3438,51.7578,55.1758,29.2969,16.1133,28.8086,42.9688,37.5977,26.8555,44.4336
1771936190226,TP10,-3.9063,37.5977,70.8008,30.2734,-22.4609,6.3477,74.7070,56.1523,-2.4414,-8.3008,47.3633,62.9883
1771936190226,AF8,61.5234,31.7383,-6.3477,13.6719,19.0430,16.6016,10.7422,16.1133,37.1094,26.3672,4.3945,9.7656
1771936190228,TP9,36.6211,66.4063,86.9141,55.6641,15.1367,46.3867,103.5156,82.0313,33.2031,28.3203,68.3594,85.4492
1771936190228,AF7,62.5000,35.6445,7.8125,25.8789,45.4102,48.8281,42.4805,49.3164,65.9180,53.7109,27.3438,26.8555
1771936190271,TP10,18.5547,1.4648,38.5742,87.4023,41.9922,-8.3008,25.8789,83.0078,49.3164,-4.3945,19.5313,80.0781
1771936190271,AF8,26.8555,23.9258,9.2773,8.3008,37.5977,44.4336,10.7422,-3.9063,20.5078,21.9727,14.1602,9.2773
1771936190272,TP9,37.1094,4.8828,49.8047,100.5859,53.2227,-2.4414,25.3906,91.3086,66.4063,14.1602,28.8086,81.5430
1771936190273,AF7,47.3633,46.3867,36.1328,41.5039,56.6406,55.6641,41.5039,35.1563,42.9688,44.4336,46.8750,40.0391
1771936190317,TP10,50.7813,-10.2539,11.2305,75.6836,73.7305,2.9297,-7.3242,54.1992,88.3789,24.9023,-7.8125,34.6680
1771936190317,AF8,16.1133,20.5078,22.4609,16.6016,6.8359,17.0898,20.9961,25.8789,23.4375,18.0664,26.3672,15.1367
1771936190317,TP9,72.7539,10.2539,16.6016,80.0781,83.9844,32.2266,14.1602,62.0117,97.1680,29.7852,-1.9531,37.5977
1771936190318,AF7,40.5273,41.9922,54.6875,59.0820,33.6914,37.5977,43.4570,39.0625,45.8984,47.8516,40.5273,30.2734
1771936190363,TP10,85.4492,53.7109,1.4648,17.0898,66.4063,69.8242,20.9961,-7.3242,41.9922,74.2188,5.3711,-32.7148
1771936190376,AF8,9.2773,20.0195,19.0430,18.0664,4.8828,12.6953,44.9219,39.0625,10.2539,7.3242,27.3438,31.2500
1771936190376,TP9,86.9141,70.8008,20.9961,17.0898,71.7773,84.4727,41.5039,22.4609,55.1758,82.0313,30.2734,1.9531
1771936190378,AF7,35.1563,52.7344,58.5938,52.7344,31.2500,36.1328,60.5469,46.8750,28.8086,31.2500,42.9688,58.5938
1771936190406,TP10,12.6953,57.6172,13.6719,-26.3672,9.7656,78.6133,38.0859,-23.4375,-6.3477,51.2695,55.6641,-12.2070
1771936190406,AF8,13.1836,4.3945,31.7383,39.5508,14.1602,5.8594,8.7891,19.0430,28.3203,14.6484,21.4844,38.0859
1771936190407,TP9,40.5273,89.3555,58.5938,8.7891,30.2734,94.2383,67.8711,11.7188,19.5313,62.9883,69.8242,16.1133
1771936190408,AF7,58.1055,41.9922,45.4102,55.1758,52.7344,45.8984,36.6211,45.4102,56.1523,36.6211,35.1563,50.7813
1771936190452,TP10,-20.5078,36.6211,53.7109,-1.4648,-33.6914,-2.9297,37.5977,-7.3242,-42.4805,-17.5781,41.0156,27.3438
1771936190453,AF8,27.3438,16.1133,12.2070,19.0430,26.3672,27.3438,15.6250,10.7422,36.6211,40.0391,23.9258,35.6445
1771936190454,TP9,3.4180,55.1758,83.4961,33.2031,0.9766,29.2969,72.7539,30.2734,-13.6719,13.1836,71.7773,59.5703
1771936190466,AF7,51.7578,37.1094,29.7852,45.4102,53.7109,34.1797,26.3672,36.1328,45.4102,42.4805,31.7383,43.4570
1771936190513,TP10,-35.1563,-42.4805,17.5781,33.2031,-34.6680,-48.3398,-4.8828,14.6484,-32.2266,-58.1055,-20.5078,26.3672
1771936190513,TP9,0.9766,1.9531,57.1289,63.4766,-8.3008,-20.9961,28.3203,39.0625,-3.4180,-32.7148,-0.9766,43.9453
1771936190513,AF8,55.6641,52.7344,35.6445,40.0391,52.7344,64.4531,49.3164,25.8789,45.8984,60.5469,44.9219,34.1797
1771936190514,AF7,58.1055,64.4531,48.3398,22.9492,31.2500,47.3633,32.2266,19.5313,41.0156,50.7813,27.8320,13.6719
1771936190556,TP10,-12.2070,-56.6406,-29.2969,36.6211,25.3906,-27.3438,-21.9727,24.9023,43.9453,-13.6719,-46.3867,8.3008
1771936190557,AF8,46.8750,56.1523,58.5938,45.8984,37.1094,51.2695,46.8750,22.9492,27.8320,47.3633,47.3633,40.5273
1771936190557,TP9,14.6484,-22.9492,-4.8828,51.7578,49.3164,5.8594,1.9531,45.8984,79.5898,27.3438,-17.5781,30.2734
1771936190558,AF7,30.7617,32.7148,26.8555,25.3906,42.9688,62.5000,36.1328,3.9063,16.6016,41.5039,31.7383,21.9727
1771936190602,TP10,59.0820,11.2305,-41.5039,-10.2539,64.9414,39.5508,-22.4609,-7.3242,74.2188,57.6172,-19.5313,-7.8125
1771936190602,AF8,31.2500,27.8320,26.8555,15.6250,7.8125,31.2500,43.4570,35.1563,32.7148,27.3438,23.9258,19.0430
1771936190602,TP9,88.8672,46.8750,-2.9297,21.4844,81.5430,72.2656,9.7656,19.5313,100.0977,83.9844,10.2539,6.8359
1771936190603,AF7,38.5742,56.1523,39.0625,18.0664,11.7188,28.3203,42.4805,44.4336,52.7344,40.0391,27.8320,31.2500
1771936190646,TP10,54.1992,61.0352,-3.4180,-20.9961,30.7617,68.8477,11.7188,-21.4844,11.7188,36.6211,14.6484,-26.3672
1771936190646,AF8,11.2305,11.7188,12.2070,18.5547,9.2773,-0.9766,6.3477,21.9727,18.0664,-19.0430,-9.2773,7.8125
1771936190648,TP9,54.1992,77.6367,24.9023,-3.4180,47.8516,83.4961,31.2500,6.3477,31.7383,64.4531,42.4805,-4.3945
1771936190649,AF7,15.6250,11.2305,32.2266,45.8984,40.5273,29.2969,32.7148,50.2930,42.4805,12.6953,19.5313,37.1094
1771936190691,TP10,-27.3438,20.9961,20.9961,-32.2266,-38.0859,20.0195,41.0156,-20.0195,-49.3164,-16.6016,33.6914,12.6953
1771936190691,AF8,-1.9531,-22.9492,-20.5078,7.8125,5.3711,-6.8359,-2.9297,18.0664,12.6953,-16.1133,-23.9258,4.8828
1771936190694,TP9,-0.9766,50.7813,59.5703,13.1836,-11.7188,34.6680,70.3125,17.0898,-23.4375,-0.4883,52.7344,31.2500
1771936190694,AF7,31.7383,12.2070,13.1836,36.1328,29.7852,15.1367,16.6016,46.8750,46.3867,6.8359,-4.8828,25.8789
1771936190737,TP10,-36.1328,-19.5313,41.0156,26.8555,-25.3906,-19.5313,41.5039,39.0625,-27.3438,-33.2031,25.8789,67.8711
1771936190738,AF8,18.0664,9.2773,-0.9766,8.3008,29.7852,14.1602,-13.1836,-19.5313,-15.6250,-8.7891,-0.4883,-5.3711
1771936190738,TP9,-16.1133,-0.9766,67.3828,58.1055,-2.4414,4.3945,62.0117,61.0352,-11.2305,-18.0664,43.4570,81.5430
1771936190739,AF7,37.5977,17.5781,12.2070,33.2031,50.2930,49.8047,27.3438,11.7188,17.5781,25.8789,35.1563,45.4102
1771936190781,TP10,19.5313,-16.1133,17.0898,67.8711,27.3438,-8.3008,20.9961,69.8242,43.9453,-19.0430,-11.7188,53.2227
1771936190782,AF8,-0.4883,13.1836,1.9531,-15.6250,0.0000,25.3906,25.8789,4.8828,-8.7891,9.2773,10.2539,-20.0195
1771936190783,TP9,29.7852,-3.9063,26.8555,73.7305,45.8984,7.8125,36.1328,89.8438,60.0586,-2.9297,5.3711,58.5938
1771936190797,AF7,49.3164,52.7344,34.1797,13.6719,30.2734,54.6875,63.4766,48.8281,31.2500,32.7148,42.4805,31.7383
1771936190827,TP10,66.8945,6.3477,-9.7656,24.9023,59.5703,28.3203,-13.1836,9.7656,60.5469,37.1094,-10.7422,-21.4844
1771936190841,AF8,-14.1602,13.6719,32.2266,15.6250,-10.7422,12.2070,33.2031,8.7891,-10.7422,26.3672,49.8047,18.5547
1771936190841,TP9,66.8945,18.5547,12.6953,51.2695,78.1250,46.3867,15.1367,30.7617,72.7539,62.9883,23.9258,2.4414
1771936190842,AF7,24.4141,47.3633,68.8477,51.7578,27.3438,42.9688,58.5938,50.2930,33.6914,60.0586,76.1719,38.5742
1771936190886,TP10,34.6680,45.8984,-17.0898,-28.8086,28.3203,54.1992,8.3008,-16.6016,31.7383,78.1250,24.4141,-20.0195
1771936190902,AF8,-8.3008,14.1602,41.5039,23.4375,-7.3242,1.9531,30.7617,33.2031,17.0898,7.3242,18.5547,17.0898
1771936190902,TP9,55.1758,81.0547,33.6914,12.2070,57.1289,88.8672,32.7148,3.9063,58.1055,101.0742,48.8281,-4.8828
1771936190902,AF7,18.0664,47.8516,73.7305,61.5234,35.6445,32.2266,55.1758,61.0352,50.2930,39.5508,49.3164,54.6875
1771936190932,TP10,29.2969,84.9609,41.5039,-18.5547,1.9531,65.9180,53.7109,7.8125,5.3711,54.1992,79.5898,12.6953
1771936190932,AF8,13.1836,7.8125,6.3477,14.6484,19.5313,1.4648,-10.2539,14.1602,25.3906,5.8594,-7.3242,-1.9531
1771936190932,TP9,39.0625,95.2148,61.0352,8.3008,17.5781,76.6602,79.5898,39.5508,31.7383,73.7305,89.3555,31.7383
1771936190933,AF7,57.6172,54.1992,50.2930,51.2695,46.8750,34.6680,36.6211,70.8008,75.6836,43.4570,31.2500,42.4805
1771936190977,TP10,-10.2539,32.2266,73.2422,36.6211,0.4883,23.9258,75.1953,67.8711,16.1133,1.4648,58.1055,69.8242
1771936190978,AF8,14.6484,5.3711,-15.1367,-1.9531,10.7422,0.4883,-9.7656,10.2539,25.8789,12.2070,-2.4414,-3.4180
1771936190978,TP9,15.1367,49.8047,85.9375,52.7344,20.9961,40.0391,81.0547,83.4961,47.3633,34.6680,80.0781,89.3555
1771936190983,AF7,49.8047,41.5039,36.6211,44.9219,48.3398,43.9453,36.1328,56.6406,64.4531,44.9219,31.2500,29.7852
1771936191022,TP10,7.8125,-12.6953,44.9219,100.5859,45.8984,-4.8828,26.3672,76.1719,43.4570,-19.0430,6.3477,68.3594
1771936191022,AF8,-1.9531,-5.8594,-13.6719,0.0000,26.3672,31.2500,1.9531,-13.1836,19.0430,21.4844,18.0664,17.0898
1771936191023,AF7,40.5273,39.0625,29.2969,42.4805,71.7773,56.1523,18.0664,22.4609,47.8516,45.4102,39.0625,33.6914
1771936191023,TP9,30.7617,-1.9531,38.0859,96.1914,62.5000,12.2070,30.2734,86.9141,62.0117,-1.4648,13.1836,71.2891
1771936191066,AF8,20.0195,31.7383,26.3672,7.3242,16.6016,42.9688,48.8281,54.6875,36.1328,35.6445,49.3164,31.2500
1771936191067,TP10,38.5742,-21.4844,-19.0430,36.6211,54.6875,4.8828,-14.6484,36.6211,52.7344,-0.9766,-26.8555,-7.8125
1771936191067,TP9,63.4766,10.7422,0.9766,39.5508,61.0352,22.9492,-1.9531,38.0859,65.9180,18.0664,-13.6719,6.3477
1771936191068,AF7,45.4102,60.0586,47.3633,23.9258,25.3906,47.8516,60.0586,55.1758,39.5508,52.7344,62.9883,43.9453
1771936191112,TP10,35.1563,6.3477,-33.6914,-13.6719,47.8516,47.3633,-5.3711,-17.0898,24.4141,51.2695,0.9766,-17.5781
1771936191112,AF8,15.6250,24.9023,41.5039,33.6914,17.5781,41.0156,70.8008,49.8047,6.3477,2.4414,21.9727,28.8086
1771936191112,TP9,51.7578,23.4375,-14.6484,0.4883,58.1055,71.7773,26.3672,8.3008,47.3633,89.3555,42.9688,15.1367
1771936191113,AF7,17.5781,21.9727,45.4102,39.5508,26.8555,50.7813,69.8242,47.3633,16.6016,23.4375,47.3633,56.6406
1771936191157,AF8,17.0898,15.1367,39.5508,35.1563,4.3945,-1.4648,21.4844,29.7852,10.2539,4.3945,28.3203,29.2969
1771936191157,TP10,38.5742,76.6602,37.5977,-1.4648,22.9492,85.4492,63.4766,-0.9766,3.4180,70.8008,76.6602,12.2070
1771936191157,TP9,54.6875,88.3789,58.5938,13.1836,26.3672,93.7500,84.4727,32.2266,27.3438,87.4023,104.4922,37.5977
1771936191158,AF7,42.9688,18.0664,44.4336,64.9414,32.2266,14.1602,34.6680,42.4805,26.3672,34.1797,58.1055,50.7813
1771936191202,TP10,0.0000,44.9219,60.0586,1.9531,-17.5781,41.5039,88.3789,36.6211,-4.8828,21.9727,70.3125,42.9688
1771936191203,AF8,14.1602,3.9063,8.3008,18.5547,20.9961,22.9492,25.3906,42.9688,36.1328,10.7422,-0.4883,13.1836
1771936191203,TP9,30.2734,85.4492,104.9805,47.3633,27.3438,66.8945,103.0273,60.0586,19.5313,34.6680,74.7070,62.0117
1771936191208,AF7,38.0859,29.7852,20.9961,32.7148,48.8281,47.8516,48.3398,59.0820,56.1523,38.0859,22.9492,39.0625
1771936191261,TP10,-17.0898,-3.4180,54.6875,53.2227,2.9297,9.7656,49.8047,57.1289,11.2305,-10.2539,33.6914,84.4727
1771936191261,AF8,34.1797,35.1563,15.1367,15.6250,42.9688,59.0820,31.2500,4.3945,26.8555,47.8516,37.1094,17.5781
1771936191262,TP9,12.2070,14.6484,69.3359,80.5664,37.1094,27.8320,58.5938,65.4297,26.3672,0.0000,33.6914,85.4492
1771936191263,AF7,53.7109,38.5742,22.4609,39.0625,63.4766,65.9180,43.4570,20.0195,33.6914,51.7578,48.3398,39.5508
1771936191306,TP10,41.0156,-10.2539,15.1367,77.6367,56.1523,2.9297,-3.4180,40.5273,61.5234,7.3242,-16.6016,48.3398
1771936191306,AF8,23.4375,35.1563,25.3906,10.2539,21.4844,43.9453,35.6445,15.6250,30.2734,39.5508,16.1133,15.1367
1771936191307,TP9,57.6172,4.3945,11.2305,62.5000,58.1055,27.8320,20.9961,54.1992,80.5664,32.7148,2.4414,60.0586
1771936191308,AF7,42.4805,51.2695,41.9922,19.0430,28.8086,62.5000,61.0352,23.9258,24.4141,51.2695,49.3164,41.9922
1771936191352,TP10,87.8906,24.4141,-13.6719,28.3203,79.1016,37.5977,-20.9961,6.8359,86.4258,59.0820,-15.6250,0.0000
1771936191352,TP9,92.2852,31.2500,-13.6719,29.2969,83.9844,50.2930,3.4180,23.4375,91.7969,70.8008,-2.4414,-5.3711
1771936191354,AF8,18.5547,34.1797,34.1797,24.9023,27.8320,28.8086,20.9961,17.0898,18.5547,11.7188,24.9023,30.7617
1771936191354,AF7,33.6914,42.9688,47.8516,45.8984,41.0156,33.6914,31.2500,40.0391,48.8281,41.5039,42.4805,41.0156
1771936191396,TP10,62.0117,54.6875,-4.3945,-6.8359,41.9922,82.0313,20.0195,-22.9492,21.9727,68.3594,34.1797,-14.1602
1771936191396,AF8,15.1367,10.7422,29.7852,40.5273,23.4375,5.3711,13.6719,30.7617,20.9961,-3.9063,15.6250,40.0391
1771936191397,TP9,55.1758,72.7539,20.9961,12.6953,58.5938,93.2617,34.6680,-4.8828,36.1328,76.6602,51.2695,9.7656
1771936191399,AF7,30.2734,31.2500,40.0391,57.1289,54.6875,35.1563,33.2031,38.0859,36.1328,23.4375,30.2734,38.0859
1771936191442,TP10,2.9297,54.1992,30.2734,-24.4141,-23.9258,30.7617,61.5234,8.3008,-16.1133,24.9023,71.7773,29.7852
1771936191442,AF8,31.7383,15.1367,11.7188,27.3438,23.4375,-4.8828,0.9766,37.5977,49.8047,18.5547,0.9766,17.5781
1771936191443,TP9,17.0898,74.7070,72.7539,18.0664,11.7188,53.2227,81.0547,33.6914,0.4883,30.7617,74.2188,42.4805
1771936191444,AF7,39.0625,48.3398,36.6211,43.9453,54.6875,23.9258,20.0195,45.4102,49.8047,32.2266,15.1367,34.1797
1771936191487,TP10,-15.1367,15.6250,75.1953,42.4805,-7.3242,17.0898,70.8008,64.9414,7.8125,2.4414,48.8281,67.8711
1771936191487,AF8,19.0430,14.1602,10.2539,17.0898,45.4102,47.8516,19.5313,26.8555,39.5508,33.6914,20.0195,7.8125
1771936191487,TP9,0.4883,29.7852,89.3555,59.0820,3.9063,19.5313,89.3555,94.2383,18.0664,5.8594,58.1055,76.6602
1771936191488,AF7,41.5039,28.8086,26.3672,29.7852,47.8516,52.2461,43.4570,51.2695,57.6172,48.3398,25.8789,19.0430
1771936191532,AF8,31.7383,52.7344,33.2031,15.6250,26.8555,42.9688,51.2695,27.3438,11.2305,36.6211,41.5039,14.6484
1771936191532,TP10,15.6250,-10.7422,26.8555,77.6367,32.7148,-9.2773,30.7617,80.0781,42.9688,-18.0664,-16.6016,49.8047
1771936191532,TP9,27.8320,1.4648,21.9727,72.2656,42.4805,-1.4648,38.5742,88.8672,60.5469,5.3711,0.9766,55.1758
1771936191533,AF7,47.8516,61.5234,40.0391,29.7852,46.8750,64.4531,60.0586,41.9922,39.5508,48.3398,44.9219,32.7148
1771936191577,TP10,61.5234,-17.0898,-37.1094,31.2500,73.2422,23.9258,-13.6719,5.3711,61.5234,35.6445,-18.0664,3.9063
1771936191593,TP9,65.9180,13.1836,-2.9297,41.5039,84.9609,47.8516,7.8125,18.5547,82.5195,61.0352,-10.7422,-3.4180
1771936191593,AF8,1.9531,20.0195,29.7852,24.9023,21.9727,34.1797,43.9453,22.4609,10.2539,26.8555,30.7617,8.3008
1771936191593,AF7,24.4141,39.0625,44.4336,32.7148,36.1328,53.2227,52.7344,30.2734,32.7148,49.3164,48.8281,34.1797
1771936191638,TP9,58.1055,61.5234,13.1836,0.4883,49.3164,85.9375,38.5742,-3.4180,43.4570,95.2148,49.8047,5.8594
1771936191638,TP10,57.6172,43.4570,-5.8594,-10.2539,46.3867,69.3359,-3.4180,-39.0625,22.9492,67.3828,-1.4648,-37.5977
1771936191638,AF8,-2.9297,20.0195,41.9922,30.7617,5.8594,20.5078,40.0391,21.4844,8.3008,12.6953,32.2266,34.6680
1771936191638,AF7,16.6016,33.2031,54.6875,38.5742,28.3203,49.3164,58.5938,40.0391,36.6211,43.4570,52.7344,62.5000
1771936191681,TP10,13.6719,67.3828,14.6484,-33.6914,-5.8594,51.7578,44.9219,-23.4375,-22.4609,40.0391,51.7578,-2.4414
1771936191682,AF8,20.9961,16.6016,12.2070,20.0195,21.9727,10.7422,10.2539,22.9492,36.6211,20.9961,5.8594,37.5977
1771936191682,TP9,31.2500,92.2852,64.9414,8.3008,17.0898,67.8711,58.5938,-1.4648,0.9766,54.1992,62.9883,11.7188
1771936191683,AF7,54.1992,35.6445,24.9023,44.9219,49.8047,29.2969,31.2500,54.1992,62.9883,41.5039,22.4609,41.0156
1771936191727,TP10,-19.0430,21.4844,52.2461,1.9531,-29.2969,5.8594,47.3633,29.7852,-27.3438,-32.2266,38.0859,41.5039
1771936191728,AF8,56.6406,11.7188,-24.9023,0.0000,29.2969,23.9258,-2.9297,15.6250,48.3398,24.9023,2.4414,20.0195
1771936191728,TP9,-6.3477,26.8555,59.0820,25.3906,3.4180,27.8320,62.9883,41.9922,1.9531,-0.9766,45.8984,63.9648
1771936191733,AF7,55.1758,44.9219,26.3672,39.5508,71.7773,62.5000,20.0195,17.5781,47.8516,44.4336,23.4375,37.5977
1771936191771,TP10,-18.0664,-32.7148,12.6953,41.5039,-16.1133,-48.3398,-6.8359,48.8281,8.7891,-47.8516,-19.5313,49.3164
1771936191771,AF8,43.9453,43.9453,19.5313,14.6484,43.4570,48.8281,17.0898,10.7422,43.4570,37.5977,16.6016,15.6250
1771936191772,TP9,23.9258,8.7891,43.9453,70.8008,25.8789,-1.9531,28.8086,82.0313,61.0352,4.8828,15.6250,78.6133
1771936191786,AF7,78.6133,82.5195,44.4336,26.8555,41.5039,42.4805,28.3203,27.8320,50.2930,52.2461,34.6680,35.6445
1771936191817,TP10,40.0391,-26.8555,-31.2500,26.3672,36.1328,-14.1602,-26.8555,38.5742,68.8477,-5.8594,-28.3203,20.9961
1771936191817,AF8,32.7148,29.2969,13.6719,-2.9297,-1.9531,29.2969,38.0859,34.1797,28.3203,21.9727,21.9727,10.2539
1771936191817,TP9,75.6836,10.7422,4.3945,66.8945,86.4258,32.7148,3.9063,56.6406,94.2383,32.7148,13.1836,55.6641
1771936191818,AF7,51.7578,50.7813,34.6680,24.9023,31.7383,49.3164,53.2227,48.8281,31.2500,24.4141,42.9688,41.0156
1771936191863,TP10,63.4766,29.2969,-19.0430,-0.9766,61.5234,48.8281,-0.4883,2.4414,34.6680,36.6211,-5.3711,-24.4141
1771936191877,AF8,1.4648,23.4375,35.6445,23.9258,6.8359,19.5313,37.1094,38.0859,18.5547,6.3477,24.4141,33.6914
1771936191877,TP9,99.6094,69.3359,21.9727,31.7383,85.9375,88.3789,45.8984,38.5742,63.9648,68.3594,26.3672,18.5547
1771936191877,AF7,33.6914,59.0820,66.4063,38.0859,18.0664,29.2969,54.6875,51.7578,24.4141,26.8555,56.1523,65.9180
1771936191906,AF8,21.4844,9.2773,27.8320,40.0391,27.8320,13.6719,30.2734,41.0156,28.3203,21.9727,33.6914,33.6914
1771936191906,TP10,26.8555,62.0117,-2.4414,-34.6680,11.7188,74.7070,41.5039,-24.9023,-9.7656,69.3359,58.1055,-21.4844
1771936191907,TP9,54.6875,80.5664,42.4805,2.4414,26.3672,87.8906,65.9180,4.8828,12.6953,90.8203,97.1680,19.0430
1771936191908,AF7,41.9922,22.4609,37.1094,51.7578,41.5039,24.9023,37.1094,47.3633,47.8516,52.7344,57.6172,48.3398
1771936191953,TP10,-34.6680,30.2734,49.8047,-15.6250,-35.6445,27.8320,68.3594,8.3008,-20.0195,12.6953,66.8945,38.5742
1771936191954,AF8,16.1133,10.7422,17.5781,36.1328,33.6914,24.4141,21.4844,24.4141,34.6680,21.4844,10.7422,24.4141
1771936191956,TP9,4.3945,65.4297,87.4023,22.9492,-3.4180,61.0352,104.0039,46.8750,12.2070,24.4141,75.6836,62.5000
1771936191956,AF7,24.9023,16.1133,24.9023,31.7383,39.5508,49.8047,39.0625,41.5039,55.6641,35.6445,13.1836,22.4609
1771936192013,TP10,-22.4609,-5.8594,52.2461,37.5977,-11.7188,12.2070,55.6641,46.3867,2.9297,-1.4648,25.8789,51.7578
1771936192013,AF8,35.6445,34.1797,16.6016,5.8594,31.7383,58.1055,37.5977,1.4648,20.5078,42.4805,21.4844,0.0000
1771936192013,TP9,3.9063,10.7422,60.5469,60.5469,27.8320,33.6914,63.9648,66.8945,21.9727,0.0000,30.7617,70.8008
1771936192014,AF7,34.1797,34.6680,28.3203,28.8086,51.2695,70.8008,49.3164,15.6250,33.2031,52.7344,29.2969,16.6016
1771936192056,TP10,18.5547,-14.6484,11.2305,65.9180,51.2695,-17.0898,-12.6953,49.8047,56.6406,-2.9297,-36.1328,23.4375
1771936192056,AF8,20.9961,41.9922,29.7852,13.1836,29.2969,37.5977,25.3906,-0.4883,9.7656,49.8047,33.6914,11.2305
1771936192057,TP9,47.8516,11.2305,24.4141,70.3125,55.1758,-7.8125,-6.8359,48.8281,66.8945,23.9258,-17.5781,33.6914
1771936192058,AF7,41.0156,61.0352,54.1992,37.1094,40.0391,39.0625,26.8555,13.1836,21.4844,54.1992,39.0625,30.7617
1771936192102,TP10,76.6602,16.6016,-29.7852,11.7188,69.3359,33.2031,-24.4141,7.3242,80.5664,43.4570,-13.1836,-4.8828
1771936192102,AF8,26.8555,39.5508,26.3672,10.2539,5.3711,25.3906,29.7852,31.7383,36.6211,28.3203,32.7148,21.9727
1771936192102,TP9,81.5430,16.1133,-18.5547,18.0664,67.8711,41.0156,-10.2539,19.5313,83.9844,63.9648,4.3945,-6.8359
1771936192105,AF7,60.5469,54.6875,30.2734,17.5781,11.7188,27.3438,36.1328,48.3398,50.2930,35.1563,45.4102,35.1563
1771936192147,TP10,38.5742,46.3867,0.0000,0.4883,48.3398,86.9141,29.2969,-11.2305,23.4375,53.7109,16.6016,-25.3906
1771936192147,AF8,6.8359,17.0898,26.3672,26.3672,13.1836,7.8125,25.8789,38.5742,25.3906,-8.7891,6.3477,27.8320
1771936192147,TP9,48.8281,73.7305,17.5781,1.9531,51.2695,83.9844,31.7383,-0.4883,30.7617,73.2422,43.9453,-3.9063
1771936192152,AF7,9.2773,16.1133,42.4805,46.3867,28.8086,26.8555,40.0391,41.9922,33.2031,17.5781,29.7852,40.5273
1771936192193,TP10,-3.4180,59.0820,54.1992,0.0000,-6.3477,48.8281,65.9180,0.0000,-31.7383,13.1836,62.0117,19.5313
1771936192193,AF8,24.4141,13.1836,19.5313,49.3164,55.1758,24.9023,8.7891,26.3672,28.8086,12.6953,8.7891,25.8789
1771936192193,TP9,6.8359,58.1055,68.8477,18.0664,6.8359,50.7813,67.3828,22.4609,-5.8594,24.9023,72.2656,41.5039
1771936192195,AF7,27.8320,18.0664,32.2266,62.0117,65.9180,29.2969,12.2070,33.6914,39.0625,26.3672,27.3438,44.4336
1771936192236,TP10,-16.1133,27.3438,70.8008,31.2500,-33.6914,-22.4609,51.7578,55.1758,-14.1602,-22.4609,42.4805,74.2188
1771936192236,AF8,43.9453,41.5039,21.4844,24.4141,26.8555,26.8555,25.8789,20.5078,26.3672,33.2031,27.8320,23.9258
1771936192237,TP9,3.4180,28.3203,68.3594,42.9688,-20.0195,-8.7891,66.4063,72.2656,3.4180,-3.4180,52.7344,78.1250
1771936192237,AF7,60.0586,74.2188,49.3164,30.2734,32.2266,29.2969,31.2500,43.9453,52.7344,57.1289,56.1523,55.1758
1771936192282,TP10,15.6250,-29.2969,23.4375,83.4961,29.2969,-6.3477,37.1094,74.2188,35.6445,-17.5781,-15.6250,46.3867
1771936192282,AF8,36.1328,34.1797,15.6250,8.7891,20.9961,41.9922,37.5977,11.2305,17.0898,32.2266,24.4141,6.8359
1771936192282,TP9,23.4375,-22.4609,17.0898,74.7070,36.6211,4.3945,43.9453,84.4727,54.6875,10.2539,4.3945,65.4297
1771936192299,AF7,50.2930,27.3438,20.0195,28.8086,49.3164,61.5234,56.6406,44.4336,45.8984,51.7578,40.0391,34.6680
1771936192328,TP10,34.6680,-29.7852,-26.8555,25.8789,49.3164,0.0000,-24.4141,-16.6016,22.4609,0.0000,-57.1289,-29.2969
1771936192341,AF8,6.8359,36.6211,41.5039,22.9492,25.8789,50.7813,50.2930,8.7891,-12.2070,15.6250,27.8320,11.2305
1771936192341,TP9,76.6602,14.6484,7.3242,51.7578,83.0078,58.5938,38.0859,39.0625,78.1250,63.9648,1.4648,4.8828
1771936192343,AF7,38.5742,52.2461,49.3164,33.6914,30.7617,63.4766,78.6133,39.0625,20.5078,35.1563,37.5977,20.5078
1771936192387,TP10,44.9219,34.1797,-24.9023,-20.5078,49.3164,64.4531,-4.3945,-23.4375,31.2500,66.8945,12.6953,-19.5313
1771936192387,AF8,8.7891,27.8320,31.7383,16.6016,9.2773,15.1367,24.4141,27.3438,16.6016,12.2070,26.8555,36.1328
1771936192401,TP9,77.1484,63.9648,1.4648,3.9063,50.2930,67.3828,20.0195,-5.3711,35.6445,86.4258,40.5273,-6.8359
1771936192401,AF7,21.4844,41.5039,45.8984,36.6211,22.9492,18.0664,27.8320,29.2969,21.9727,31.7383,38.0859,39.0625
1771936192431,TP10,28.3203,66.4063,21.4844,-24.4141,-0.4883,57.6172,26.8555,-32.2266,-15.1367,43.9453,52.2461,3.4180
1771936192432,AF8,35.6445,16.1133,14.1602,25.8789,22.4609,8.7891,5.3711,26.3672,42.9688,29.7852,29.2969,44.9219
1771936192433,TP9,20.9961,67.3828,39.5508,-9.2773,8.3008,57.6172,41.5039,-1.9531,18.5547,71.7773,78.6133,23.4375
1771936192434,AF7,36.6211,16.6016,19.5313,36.6211,30.7617,13.6719,22.4609,38.0859,50.2930,43.9453,42.4805,61.5234
1771936192476,TP10,-18.5547,3.4180,48.3398,21.4844,-10.2539,28.8086,74.2188,35.1563,-4.8828,10.7422,57.1289,53.7109
1771936192478,AF8,40.0391,17.0898,4.8828,30.2734,46.3867,44.9219,39.5508,47.8516,57.6172,34.1797,13.1836,27.3438
1771936192478,TP9,-10.2539,16.1133,66.4063,44.9219,9.2773,41.5039,99.1211,67.8711,20.9961,20.9961,58.5938,71.7773
1771936192478,AF7,53.2227,15.6250,1.9531,34.1797,54.6875,58.5938,60.5469,59.0820,60.0586,50.2930,25.8789,32.2266
1771936192521,TP10,0.4883,-6.8359,44.9219,65.9180,7.3242,0.4883,41.9922,67.3828,26.3672,-26.3672,9.7656,81.0547
1771936192521,AF8,39.0625,36.1328,30.7617,33.6914,48.8281,56.1523,31.2500,8.7891,43.4570,50.2930,29.7852,21.9727
1771936192522,TP9,19.0430,3.9063,54.6875,81.5430,24.9023,11.2305,58.5938,86.4258,59.0820,10.7422,25.3906,85.4492
1771936192523,AF7,49.3164,54.1992,52.2461,41.9922,44.9219,68.3594,61.5234,35.6445,45.8984,49.3164,36.6211,26.8555
1771936192581,TP10,46.8750,-7.3242,20.9961,75.6836,60.5469,2.9297,-8.7891,44.9219,72.7539,14.1602,2.9297,45.8984
1771936192582,AF8,29.2969,44.9219,49.3164,26.3672,21.4844,45.8984,39.0625,23.4375,13.6719,24.9023,51.2695,34.6680
1771936192582,TP9,70.3125,16.6016,22.9492,68.8477,74.2188,36.1328,16.6016,59.5703,85.4492,32.2266,16.1133,41.0156
1771936192583,AF7,33.2031,55.1758,63.4766,44.4336,51.2695,67.8711,51.2695,31.2500,23.4375,40.0391,71.2891,62.5000
1771936192611,TP10,76.6602,33.2031,-3.9063,17.0898,67.8711,55.1758,4.8828,-15.1367,41.5039,49.8047,-16.1133,-16.6016
1771936192611,AF8,12.2070,28.8086,49.3164,41.0156,15.1367,27.3438,56.6406,54.1992,47.3633,44.9219,46.8750,48.3398
1771936192612,TP9,74.7070,43.9453,-0.9766,13.1836,73.7305,64.9414,8.7891,-7.8125,44.4336,66.4063,18.5547,5.8594
1771936192613,AF7,37.1094,39.0625,50.2930,47.8516,24.4141,30.2734,51.2695,43.9453,50.2930,61.5234,63.9648,57.6172
1771936192656,TP10,29.7852,50.2930,-11.7188,-42.9688,1.9531,62.5000,29.7852,-21.9727,-2.4414,61.0352,43.4570,-11.2305
1771936192657,AF8,35.1563,41.5039,60.0586,64.4531,69.3359,67.3828,66.8945,65.4297,56.1523,47.3633,48.8281,62.9883
1771936192657,TP9,28.8086,61.0352,15.1367,-21.9727,17.5781,79.5898,49.8047,-17.0898,-3.4180,59.5703,52.7344,-6.3477
1771936192658,AF7,25.3906,24.4141,47.3633,51.2695,41.5039,45.8984,70.3125,69.8242,50.7813,33.2031,39.5508,52.2461
1771936192702,TP10,-7.3242,57.1289,88.3789,17.5781,-7.8125,62.9883,108.8867,39.0625,-7.3242,24.4141,74.2188,37.1094
1771936192702,AF8,61.5234,47.3633,54.6875,55.1758,49.8047,49.3164,47.8516,49.3164,46.3867,30.2734,13.6719,19.0430
1771936192703,TP9,-11.2305,60.0586,95.7031,39.5508,20.0195,70.3125,118.1641,65.9180,13.6719,37.1094,81.0547,57.6172
1771936192716,AF7,44.4336,38.5742,52.7344,61.5234,51.7578,43.9453,47.3633,60.5469,46.3867,27.3438,19.0430,27.8320
1771936192761,TP10,-12.6953,21.4844,92.7734,78.1250,9.7656,7.3242,57.1289,65.4297,23.9258,12.6953,52.7344,83.0078
1771936192761,AF8,29.7852,41.0156,30.2734,18.5547,32.7148,52.2461,30.2734,-1.4648,20.5078,37.1094,27.8320,12.2070
1771936192762,TP9,10.2539,29.7852,92.2852,83.0078,23.9258,26.8555,70.3125,78.1250,33.2031,9.7656,52.2461,95.2148
1771936192762,AF7,37.1094,48.8281,41.5039,34.6680,44.4336,37.1094,15.1367,11.2305,44.9219,58.1055,46.3867,34.1797
1771936192806,TP10,18.0664,-20.9961,6.3477,62.5000,43.9453,-12.6953,-12.2070,39.0625,53.7109,-7.8125,-34.6680,23.9258
1771936192806,AF8,21.4844,32.2266,18.0664,10.7422,24.9023,38.5742,29.2969,7.3242,26.8555,50.7813,22.9492,4.8828
1771936192807,TP9,44.4336,-7.3242,16.1133,79.1016,70.8008,17.0898,10.7422,62.9883,83.0078,37.1094,-5.3711,38.5742
1771936192808,AF7,33.6914,37.5977,21.4844,21.4844,50.2930,60.5469,43.4570,25.3906,38.5742,52.2461,31.2500,22.9492
1771936192851,TP10,53.2227,-10.2539,-27.8320,12.6953,46.8750,14.1602,-25.8789,-2.4414,47.8516,24.4141,-26.8555,-18.0664
1771936192851,AF8,8.3008,19.5313,29.7852,20.9961,12.6953,29.2969,30.7617,17.0898,15.6250,25.3906,34.1797,31.2500
1771936192852,TP9,89.3555,25.8789,-17.5781,22.9492,79.1016,54.6875,-0.9766,11.7188,76.6602,70.3125,11.7188,0.9766
1771936192853,AF7,33.2031,42.9688,51.2695,38.5742,19.5313,38.5742,55.6641,41.9922,34.1797,42.4805,52.7344,43.9453
1771936192897,TP10,35.1563,37.1094,-26.8555,-31.7383,34.1797,70.8008,6.3477,-13.6719,31.2500,65.9180,40.0391,-6.8359
1771936192897,AF8,13.6719,3.9063,23.4375,32.7148,21.4844,18.5547,31.7383,52.7344,48.3398,22.9492,34.6680,46.3867
1771936192898,TP9,43.9453,55.1758,11.2305,0.0000,48.8281,82.0313,25.3906,4.3945,41.0156,78.6133,58.1055,9.7656
1771936192899,AF7,15.6250,11.7188,33.6914,47.8516,51.2695,43.4570,41.9922,57.6172,49.3164,30.7617,43.9453,54.1992
1771936192943,TP10,13.6719,62.0117,41.0156,-14.6484,-15.1367,43.4570,61.5234,14.1602,-14.6484,28.3203,72.7539,19.5313
1771936192943,AF8,35.1563,16.6016,16.6016,40.0391,43.9453,17.5781,20.0195,51.7578,43.9453,22.9492,23.4375,42.4805
1771936192943,TP9,23.4375,77.1484,61.0352,6.3477,7.8125,64.4531,82.5195,41.9922,5.3711,26.3672,83.0078,46.8750
1771936192944,AF7,52.2461,38.0859,38.5742,53.7109,54.1992,32.2266,41.9922,71.7773,55.1758,26.8555,35.1563,60.0586
1771936192987,TP10,-18.0664,11.7188,60.0586,41.5039,-2.9297,4.3945,56.6406,34.1797,-43.9453,-40.5273,17.5781,24.4141
1771936192987,AF8,54.1992,38.0859,16.6016,37.5977,50.2930,32.7148,22.9492,33.2031,42.9688,39.5508,21.4844,10.2539
1771936192987,TP9,8.7891,33.6914,79.5898,59.0820,6.3477,10.2539,79.1016,94.7266,23.4375,10.2539,63.9648,75.6836
1771936192987,AF7,65.9180,49.8047,35.1563,57.6172,61.0352,39.5508,41.5039,56.1523,63.4766,65.4297,48.3398,27.3438
1771936193033,TP9,32.7148,12.2070,45.4102,77.1484,39.0625,15.6250,54.6875,101.5625,69.8242,20.0195,29.7852,84.4727
1771936193033,AF8,36.1328,61.5234,53.2227,30.2734,39.5508,53.7109,52.7344,36.1328,36.6211,58.5938,57.1289,36.6211
1771936193033,TP10,-15.1367,-17.5781,29.7852,62.0117,9.2773,-22.4609,21.4844,74.2188,40.5273,-10.2539,3.4180,70.3125
1771936193033,AF7,49.8047,73.2422,66.8945,49.3164,47.8516,56.1523,53.7109,44.9219,55.1758,67.3828,68.8477,57.6172
1771936193076,TP10,59.0820,3.4180,7.3242,51.2695,82.5195,38.5742,5.8594,43.4570,80.5664,35.1563,-8.3008,11.7188
1771936193091,AF8,22.9492,42.9688,56.1523,36.6211,37.1094,76.1719,77.1484,55.6641,51.2695,62.0117,72.7539,55.6641
1771936193091,TP9,78.6133,27.3438,28.3203,70.8008,97.6563,68.3594,39.0625,67.8711,110.8398,71.7773,26.3672,42.9688
1771936193092,AF7,41.5039,48.3398,58.1055,54.1992,48.3398,68.3594,81.5430,68.3594,44.9219,45.4102,55.6641,53.7109
1771936193136,TP10,69.8242,55.1758,-1.9531,-2.9297,63.4766,77.1484,14.6484,-11.2305,19.0430,51.2695,9.2773,-14.1602
1771936193136,AF8,36.1328,45.8984,63.9648,59.5703,50.2930,65.9180,74.7070,49.8047,28.3203,38.5742,55.1758,61.0352
1771936193137,TP9,99.1211,81.5430,21.4844,18.0664,83.9844,108.3984,43.4570,7.3242,51.2695,101.0742,45.4102,0.4883
1771936193138,AF7,46.8750,55.6641,70.8008,67.3828,61.5234,70.8008,74.7070,49.3164,27.3438,29.7852,51.2695,62.9883
1771936193181,TP10,33.6914,77.6367,33.6914,-10.7422,18.0664,70.3125,32.7148,-34.1797,-14.6484,56.1523,52.7344,-7.8125
1771936193181,AF8,60.5469,52.7344,55.1758,57.6172,60.0586,55.1758,44.4336,50.2930,62.9883,55.1758,42.4805,61.5234
1771936193182,TP9,49.3164,102.5391,59.5703,6.3477,37.1094,97.6563,67.8711,3.4180,13.1836,78.1250,86.4258,23.9258
1771936193183,AF7,62.0117,64.9414,62.5000,52.2461,62.0117,60.0586,33.6914,33.2031,45.8984,41.9922,39.5508,54.6875
1771936193226,TP10,-19.0430,34.6680,78.1250,24.9023,-5.3711,32.7148,63.9648,24.9023,-15.1367,5.8594,62.9883,60.5469
1771936193226,AF8,60.0586,40.0391,35.6445,54.1992,80.0781,63.9648,22.4609,34.1797,62.5000,57.6172,35.6445,41.9922
1771936193227,TP9,3.4180,49.8047,89.3555,52.2461,20.5078,35.1563,62.5000,39.0625,19.5313,40.0391,73.7305,69.3359
1771936193227,AF7,50.7813,40.5273,44.4336,51.7578,62.0117,43.4570,11.7188,24.4141,56.1523,57.1289,41.0156,43.9453
1771936193271,TP10,0.9766,-2.4414,43.9453,59.5703,10.7422,-20.0195,29.7852,76.1719,31.2500,-4.3945,11.7188,47.3633
1771936193271,AF8,56.1523,44.4336,28.3203,33.6914,49.8047,47.3633,41.5039,52.2461,67.3828,57.6172,37.5977,16.1133
1771936193272,TP9,20.5078,6.8359,54.6875,84.9609,38.5742,13.1836,53.7109,101.0742,69.8242,12.6953,16.1133,67.8711
1771936193273,AF7,52.7344,54.6875,33.2031,26.3672,46.8750,56.6406,48.3398,48.3398,70.8008,81.0547,57.1289,21.4844
1771936193316,TP10,16.6016,-33.6914,-11.2305,43.9453,44.9219,-14.1602,-20.9961,44.9219,64.4531,7.3242,-24.4141,13.1836
1771936193316,AF8,20.5078,45.8984,51.2695,30.2734,26.8555,47.8516,64.4531,54.1992,31.2500,54.6875,70.3125,41.0156
1771936193317,TP9,58.5938,15.1367,20.0195,68.8477,79.5898,21.4844,5.8594,75.1953,86.9141,26.3672,3.9063,32.2266
1771936193318,AF7,28.3203,51.7578,56.6406,42.4805,40.0391,50.2930,62.0117,62.9883,45.4102,58.1055,69.3359,43.9453
1771936193361,TP10,61.0352,16.1133,-22.4609,15.1367,69.8242,32.2266,-29.7852,-12.6953,35.6445,35.6445,-3.9063,0.0000
1771936193361,AF8,19.5313,36.6211,62.0117,58.1055,31.7383,31.2500,51.2695,53.7109,35.1563,37.1094,58.5938,65.9180
1771936193362,TP9,72.7539,38.0859,-0.4883,32.7148,81.0547,50.2930,2.9297,15.6250,58.5938,64.9414,18.0664,4.8828
1771936193363,AF7,30.2734,43.4570,54.6875,61.5234,41.5039,34.6680,49.3164,46.3867,30.2734,31.7383,58.1055,59.5703
1771936193422,TP10,44.9219,55.6641,9.7656,-18.0664,12.2070,65.9180,24.9023,-34.1797,-0.4883,74.2188,54.6875,-7.3242
1771936193422,AF8,47.3633,23.9258,41.5039,51.2695,39.5508,36.1328,50.7813,57.1289,48.3398,30.7617,31.2500,40.5273
1771936193423,TP9,54.1992,81.5430,38.5742,0.0000,24.4141,85.9375,61.5234,-8.7891,4.8828,78.1250,62.9883,-2.4414
1771936193423,AF7,40.0391,24.4141,36.1328,50.2930,42.9688,40.0391,51.2695,44.4336,36.1328,30.7617,29.7852,32.2266
1771936193451,TP10,-2.9297,62.9883,72.7539,8.7891,-17.5781,29.2969,75.6836,11.7188,-33.6914,16.1133,77.1484,27.8320
1771936193466,AF8,32.7148,28.8086,35.1563,49.3164,53.2227,41.0156,34.1797,35.1563,33.2031,37.5977,35.6445,35.6445
1771936193466,TP9,4.3945,72.7539,78.1250,17.0898,1.4648,53.2227,100.0977,38.0859,-11.7188,37.1094,99.6094,47.8516
1771936193467,AF7,34.6680,44.9219,41.0156,42.9688,42.9688,28.8086,28.3203,36.6211,39.5508,47.8516,41.0156,28.3203
1771936193526,TP10,-34.6680,-7.3242,51.2695,44.9219,-2.4414,12.2070,69.3359,77.1484,17.5781,-2.9297,39.5508,67.8711
1771936193527,AF8,41.9922,40.0391,20.0195,13.1836,44.9219,62.9883,34.1797,28.3203,55.6641,63.4766,47.3633,24.9023
1771936193527,TP9,-7.3242,17.0898,68.3594,64.9414,16.6016,24.4141,70.8008,79.1016,29.2969,9.7656,44.4336,74.7070
1771936193528,AF7,28.3203,25.8789,17.5781,21.4844,40.5273,56.6406,42.4805,40.5273,56.6406,51.2695,28.8086,16.1133
1771936193556,TP10,18.0664,-5.3711,31.7383,59.0820,32.2266,-11.7188,-12.6953,39.0625,42.9688,-12.2070,-15.6250,31.2500
1771936193556,AF8,38.0859,56.6406,49.3164,20.5078,26.8555,48.8281,29.7852,8.7891,22.4609,49.8047,53.2227,22.9492
1771936193557,TP9,42.9688,7.3242,20.5078,71.2891,66.4063,19.5313,0.9766,50.7813,72.7539,26.3672,19.0430,51.7578
1771936193558,AF7,31.7383,55.6641,41.9922,9.2773,31.2500,54.6875,36.6211,13.6719,25.3906,62.0117,69.3359,28.3203
1771936193601,TP10,51.2695,-1.9531,-43.9453,-4.3945,55.1758,20.0195,-29.2969,9.7656,92.7734,38.0859,-44.9219,-13.1836
1771936193601,AF8,33.2031,63.9648,36.1328,15.1367,22.9492,41.0156,48.8281,54.1992,57.1289,41.0156,36.1328,38.5742
1771936193602,TP9,79.1016,43.4570,-3.9063,29.7852,90.3320,60.0586,10.2539,28.8086,92.7734,61.0352,-3.9063,6.8359
1771936193603,AF7,26.8555,58.5938,40.0391,19.5313,23.4375,48.8281,56.1523,49.8047,56.1523,38.5742,32.2266,44.9219
1771936193646,TP10,52.7344,43.4570,-24.4141,-28.8086,41.0156,72.7539,15.6250,-6.8359,28.8086,70.8008,26.3672,-28.8086
1771936193661,AF8,19.0430,17.0898,30.7617,32.7148,32.2266,34.6680,41.5039,37.1094,26.8555,21.4844,23.9258,24.9023
1771936193661,TP9,58.1055,66.4063,11.7188,-0.4883,49.8047,92.7734,42.4805,5.3711,40.0391,84.9609,53.7109,-2.9297
1771936193663,AF7,36.6211,35.1563,42.9688,43.4570,36.6211,49.8047,74.2188,75.1953,55.1758,42.9688,49.3164,48.8281
1771936193692,TP10,0.4883,75.1953,56.6406,-15.6250,-10.7422,55.1758,59.0820,-11.7188,-23.9258,34.6680,71.2891,21.9727
1771936193693,AF8,28.8086,25.3906,25.3906,31.7383,22.4609,18.5547,27.3438,38.0859,42.4805,21.9727,11.7188,38.5742
1771936193693,TP9,10.2539,77.1484,75.6836,13.6719,0.0000,55.6641,72.2656,9.2773,-6.3477,47.3633,83.4961,41.9922
1771936193695,AF7,48.8281,53.2227,60.5469,60.0586,52.7344,44.9219,39.5508,46.8750,60.0586,53.2227,43.9453,70.8008
1771936193736,TP10,-5.8594,30.2734,77.1484,29.7852,-24.9023,10.2539,65.4297,61.0352,7.3242,2.4414,71.7773,85.4492
1771936193736,AF8,58.5938,42.4805,19.0430,17.5781,34.6680,40.0391,18.0664,29.7852,42.9688,39.0625,28.8086,35.1563
1771936193737,TP9,12.6953,37.5977,81.5430,40.0391,-7.8125,12.6953,66.8945,75.1953,14.1602,0.9766,60.0586,85.9375
1771936193738,AF7,102.0508,89.3555,56.1523,45.8984,56.1523,57.6172,48.3398,59.0820,77.1484,82.0313,67.3828,60.0586
1771936193781,TP10,11.7188,-10.2539,40.0391,80.0781,30.7617,-7.8125,35.1563,92.7734,44.9219,-5.3711,17.5781,66.8945
1771936193782,AF8,51.2695,45.4102,24.4141,13.1836,28.8086,39.5508,34.1797,23.9258,29.2969,49.8047,41.9922,15.6250
1771936193782,TP9,29.7852,0.9766,33.6914,72.2656,39.0625,2.9297,32.2266,83.0078,53.2227,8.3008,16.6016,61.5234
1771936193784,AF7,71.2891,66.8945,51.2695,39.5508,52.7344,64.9414,52.7344,32.2266,38.5742,61.5234,56.6406,31.2500
1771936193827,TP10,66.4063,14.1602,-2.9297,41.5039,70.3125,26.3672,8.3008,43.4570,87.8906,42.9688,-12.6953,16.6016
1771936193843,AF8,30.7617,43.9453,29.7852,9.2773,20.5078,46.8750,51.7578,34.6680,16.1133,27.3438,33.2031,24.9023
1771936193843,TP9,78.1250,42.4805,20.9961,51.2695,75.6836,40.5273,16.6016,38.5742,79.1016,57.1289,17.0898,29.2969
1771936193843,AF7,44.9219,78.6133,65.9180,31.7383,25.3906,50.2930,66.4063,49.3164,40.0391,50.7813,49.3164,39.0625
1771936193872,TP10,74.7070,52.2461,3.9063,17.0898,73.7305,62.9883,-4.8828,-17.5781,41.0156,74.7070,4.8828,-20.9961
1771936193873,AF8,16.6016,37.1094,55.6641,46.3867,26.8555,23.4375,37.1094,34.6680,19.5313,14.6484,23.4375,30.7617
1771936193886,TP9,80.5664,65.9180,9.7656,11.2305,64.4531,69.8242,17.0898,0.9766,52.7344,87.4023,28.8086,-3.4180
1771936193886,AF7,28.3203,42.4805,56.1523,51.2695,35.6445,31.2500,48.3398,48.3398,38.5742,37.1094,45.4102,51.2695
1771936193932,TP10,29.7852,75.6836,29.7852,-33.6914,-4.3945,66.4063,30.2734,-30.2734,-8.7891,48.8281,45.8984,-20.9961
1771936193932,AF8,31.2500,25.3906,32.2266,41.9922,37.5977,29.7852,27.3438,40.0391,49.3164,29.2969,15.6250,37.5977
1771936193933,TP9,35.6445,80.0781,42.4805,-17.5781,0.9766,83.0078,60.5469,-10.7422,3.9063,60.0586,61.0352,12.2070
1771936193933,AF7,57.6172,48.8281,43.9453,45.8984,35.6445,32.2266,40.0391,54.6875,53.2227,32.2266,30.2734,63.4766
1771936193976,TP10,-29.2969,25.8789,44.9219,-5.8594,-32.2266,6.3477,55.6641,21.4844,-9.2773,-1.9531,38.5742,35.1563
1771936193976,AF8,45.8984,29.7852,8.7891,27.3438,45.8984,33.6914,24.9023,30.7617,59.5703,42.9688,8.3008,24.4141
1771936193977,TP9,1.4648,37.1094,48.3398,6.3477,-12.2070,22.9492,70.8008,39.5508,17.0898,31.2500,65.4297,60.5469
1771936193977,AF7,67.3828,38.0859,18.0664,25.8789,39.0625,37.1094,27.3438,40.0391,79.1016,61.5234,17.5781,29.2969
1771936194021,TP10,-18.0664,-14.6484,45.4102,69.3359,20.9961,3.4180,35.1563,85.4492,50.2930,-15.1367,11.7188,80.5664
1771936194021,AF8,41.5039,38.0859,28.3203,35.1563,52.2461,50.2930,36.6211,34.6680,44.4336,38.0859,30.7617,26.3672
1771936194022,TP9,7.3242,-1.4648,53.2227,87.4023,43.4570,18.0664,46.3867,98.1445,66.8945,2.4414,19.5313,85.9375
1771936194023,AF7,43.9453,36.1328,29.2969,33.2031,69.3359,76.6602,35.6445,39.0625,57.6172,47.3633,34.1797,26.8555
1771936194067,TP10,54.6875,0.0000,20.5078,77.1484,82.0313,27.3438,-6.8359,50.7813,67.8711,8.3008,5.3711,45.4102
1771936194067,AF8,28.8086,41.9922,47.8516,25.3906,25.3906,52.2461,48.8281,31.7383,24.4141,36.1328,62.0117,51.7578
1771936194067,TP9,66.8945,11.2305,20.0195,79.1016,87.8906,40.5273,19.0430,71.2891,93.2617,32.2266,17.5781,54.6875
1771936194068,AF7,44.4336,63.4766,48.8281,30.2734,53.7109,75.1953,56.6406,40.5273,44.9219,58.5938,75.6836,65.9180
1771936194111,TP10,70.8008,28.8086,-3.4180,20.9961,68.3594,51.2695,11.2305,20.0195,75.6836,74.2188,4.3945,3.9063
1771936194111,AF8,26.8555,37.5977,53.2227,47.8516,25.8789,37.5977,62.5000,64.4531,51.2695,37.5977,35.1563,39.0625
1771936194112,TP9,85.4492,48.3398,24.9023,48.8281,83.0078,74.2188,38.5742,35.1563,82.0313,89.8438,22.4609,5.8594
1771936194113,AF7,47.8516,51.7578,61.5234,59.0820,42.9688,55.1758,75.6836,67.3828,55.1758,53.2227,50.7813,58.1055
1771936194157,TP10,65.9180,74.2188,23.4375,3.9063,47.3633,92.7734,41.5039,-8.7891,13.1836,78.1250,58.5938,-7.3242
1771936194157,AF8,26.3672,24.4141,50.7813,62.5000,55.1758,42.4805,41.9922,49.8047,34.1797,12.6953,29.2969,41.0156
1771936194158,TP9,66.8945,97.6563,53.7109,32.2266,62.9883,97.6563,61.0352,16.1133,18.0664,72.7539,69.3359,14.1602
1771936194162,AF7,47.3633,38.0859,58.1055,67.3828,63.4766,46.3867,45.4102,63.4766,54.1992,36.1328,46.3867,54.1992
1771936194201,TP10,17.5781,79.5898,66.8945,3.9063,-6.8359,50.7813,84.4727,18.0664,-21.4844,26.8555,88.8672,43.4570
1771936194217,AF8,41.0156,38.0859,31.7383,42.9688,45.8984,31.7383,29.2969,33.2031,36.6211,35.1563,24.9023,20.0195
1771936194217,TP9,25.3906,83.0078,75.6836,27.3438,21.9727,69.3359,110.3516,51.7578,8.7891,34.6680,88.8672,64.4531
1771936194217,AF7,56.6406,59.0820,51.2695,59.0820,69.8242,57.1289,41.9922,45.8984,48.8281,41.0156,47.3633,63.9648
1771936194262,TP10,-16.6016,7.3242,57.1289,37.1094,-20.0195,-15.1367,50.2930,53.2227,-23.4375,-36.6211,12.2070,45.4102
1771936194262,AF8,29.2969,33.6914,22.4609,39.5508,59.0820,46.3867,30.7617,27.8320,29.7852,45.8984,38.5742,18.5547
1771936194262,TP9,20.0195,37.5977,83.4961,73.2422,25.3906,26.8555,85.9375,101.5625,31.2500,14.6484,52.2461,84.9609
1771936194263,AF7,70.8008,60.0586,37.5977,50.2930,72.7539,66.4063,53.2227,58.1055,51.2695,51.7578,47.8516,41.0156
1771936194306,TP10,7.8125,-22.4609,5.3711,70.3125,42.4805,-16.1133,5.8594,59.0820,55.6641,5.3711,-10.7422,53.2227
1771936194306,AF8,44.9219,58.5938,26.8555,12.6953,33.6914,43.9453,31.2500,18.5547,41.9922,62.9883,41.0156,33.2031
1771936194307,TP9,57.1289,16.1133,34.1797,90.3320,70.8008,12.2070,26.8555,88.3789,93.2617,47.8516,14.6484,59.5703
1771936194308,AF7,63.4766,71.2891,63.4766,52.7344,59.5703,62.9883,51.7578,50.7813,64.4531,80.0781,62.0117,47.8516
1771936194351,TP10,84.4727,12.2070,-10.7422,43.4570,86.9141,39.5508,-16.1133,14.6484,85.4492,56.6406,-10.2539,3.4180
1771936194351,AF8,44.9219,43.4570,33.2031,27.3438,27.3438,43.9453,41.5039,37.5977,40.0391,36.6211,54.1992,59.0820
1771936194352,TP9,98.6328,35.6445,-2.9297,44.9219,87.8906,47.3633,-1.4648,19.0430,101.5625,80.0781,13.6719,27.8320
1771936194353,AF7,58.1055,59.5703,57.6172,55.1758,43.9453,54.1992,62.9883,60.5469,59.5703,59.0820,70.8008,78.6133
1771936194396,TP10,77.6367,73.7305,6.8359,-0.9766,46.3867,78.1250,25.8789,5.8594,51.2695,74.2188,36.6211,1.4648
1771936194396,AF8,35.1563,31.2500,51.2695,48.3398,25.3906,32.2266,49.8047,52.2461,44.4336,21.4844,35.6445,51.2695
1771936194397,TP9,80.5664,76.6602,18.0664,14.6484,66.4063,98.1445,47.3633,7.3242,44.9219,80.5664,46.3867,12.2070
1771936194398,AF7,63.9648,51.7578,67.8711,77.1484,61.5234,63.9648,82.5195,72.2656,52.7344,42.4805,61.5234,80.0781
1771936194441,TP10,36.6211,89.3555,60.0586,0.9766,5.8594,61.0352,61.0352,12.2070,5.3711,41.5039,67.3828,36.1328
1771936194441,AF8,41.0156,32.7148,53.2227,57.1289,32.7148,12.6953,20.5078,57.1289,60.0586,33.6914,42.4805,67.3828
1771936194442,TP9,40.5273,93.2617,80.0781,19.0430,9.7656,67.8711,80.0781,35.1563,12.6953,41.5039,81.0547,46.3867
1771936194442,AF7,81.5430,64.9414,63.9648,55.6641,40.0391,36.1328,43.9453,66.4063,71.7773,52.7344,49.3164,81.5430
1771936194486,TP10,0.0000,25.3906,84.4727,52.7344,1.9531,22.9492,86.9141,70.3125,1.9531,16.1133,78.1250,71.2891
1771936194486,AF8,49.3164,16.6016,7.3242,31.7383,52.2461,51.2695,45.4102,53.2227,54.1992,46.8750,22.4609,12.2070
1771936194489,TP9,5.8594,25.3906,84.9609,60.0586,9.7656,31.2500,99.6094,94.7266,26.3672,27.3438,78.1250,75.1953
1771936194489,AF7,84.4727,48.3398,38.5742,61.0352,69.8242,71.7773,72.7539,71.7773,76.1719,82.0313,58.1055,36.1328
1771936194531,TP10,3.4180,-18.0664,37.1094,79.1016,35.6445,7.8125,40.0391,71.7773,32.2266,-7.8125,21.9727,77.1484
1771936194531,AF8,41.0156,53.2227,41.5039,27.3438,42.9688,60.0586,53.2227,29.2969,33.6914,46.8750,43.9453,32.2266
1771936194532,TP9,22.9492,8.7891,61.0352,102.0508,55.1758,32.2266,62.0117,87.4023,56.1523,16.6016,35.6445,85.4492
1771936194533,AF7,48.3398,56.6406,55.6641,47.8516,62.0117,88.8672,71.7773,32.2266,37.1094,52.2461,52.2461,53.7109
1771936194576,TP10,49.8047,-1.4648,11.2305,59.0820,68.8477,14.1602,-9.2773,22.4609,67.3828,40.0391,-6.3477,22.9492
1771936194591,AF8,29.2969,54.6875,55.1758,29.2969,26.8555,42.9688,53.7109,40.0391,25.8789,31.7383,33.2031,31.7383
1771936194591,TP9,79.5898,26.8555,23.9258,66.8945,77.1484,31.7383,9.2773,40.0391,87.8906,60.0586,7.3242,30.2734
1771936194592,AF7,62.5000,73.2422,73.2422,42.4805,30.2734,48.8281,53.2227,39.0625,48.3398,62.0117,52.2461,57.1289
1771936194622,TP10,82.0313,43.9453,-17.5781,-0.4883,64.9414,68.3594,7.3242,-3.4180,62.5000,88.3789,19.0430,-18.5547
1771936194623,AF8,15.1367,20.9961,42.9688,32.2266,21.4844,30.7617,50.2930,56.6406,44.9219,31.7383,28.3203,25.3906
1771936194636,TP9,85.4492,62.5000,17.0898,20.9961,75.1953,83.0078,26.8555,14.6484,67.8711,95.2148,38.5742,-0.9766
1771936194636,AF7,49.3164,44.4336,59.0820,56.6406,49.8047,49.8047,58.1055,64.9414,49.8047,43.9453,52.7344,46.8750
1771936194682,TP10,44.9219,96.6797,41.5039,-8.3008,30.2734,98.1445,51.2695,-20.9961,6.8359,69.3359,59.0820,-1.9531
1771936194683,AF8,35.1563,38.0859,48.8281,57.1289,57.1289,42.9688,15.1367,22.9492,37.5977,35.6445,31.7383,41.9922
1771936194683,TP9,51.2695,106.4453,54.6875,1.9531,42.4805,104.4922,54.1992,-6.3477,16.6016,79.1016,77.6367,26.3672
1771936194684,AF7,52.2461,66.8945,72.7539,62.9883,70.3125,64.4531,42.9688,49.8047,63.4766,63.9648,65.4297,75.6836
1771936194726,TP10,-7.8125,47.3633,77.1484,21.9727,-20.0195,21.9727,63.9648,19.5313,3.4180,47.8516,65.9180,33.6914
1771936194726,AF8,59.0820,49.3164,21.4844,25.8789,46.3867,43.4570,28.8086,42.4805,66.4063,63.9648,31.7383,26.3672
1771936194727,TP9,15.6250,58.1055,75.6836,23.4375,4.8828,39.0625,85.4492,58.1055,29.7852,55.1758,78.6133,58.1055
1771936194727,AF7,80.5664,72.2656,53.2227,63.9648,67.3828,42.9688,29.2969,47.8516,73.2422,76.1719,35.6445,26.3672
1771936194771,TP10,-1.4648,0.9766,52.2461,62.5000,20.9961,24.4141,59.0820,77.6367,33.2031,-8.7891,24.9023,85.9375
1771936194772,AF8,41.9922,36.6211,26.8555,33.2031,56.1523,67.8711,40.5273,13.6719,41.5039,51.7578,35.1563,36.1328
1771936194772,TP9,20.0195,17.0898,61.5234,86.4258,48.3398,33.6914,57.6172,78.6133,43.4570,-3.9063,24.9023,81.0547
1771936194773,AF7,43.9453,29.7852,13.6719,19.5313,50.2930,80.0781,50.7813,11.2305,28.3203,31.2500,18.5547,27.3438
1771936194816,TP10,54.6875,4.3945,30.2734,76.6602,43.4570,-19.5313,-14.6484,48.3398,60.0586,-2.4414,-5.3711,43.9453
1771936194816,AF8,46.3867,52.7344,49.3164,27.3438,21.9727,37.5977,43.9453,41.0156,45.4102,51.2695,44.9219,19.0430
1771936194817,TP9,63.4766,27.3438,31.7383,73.7305,65.9180,17.0898,12.2070,67.3828,76.1719,13.6719,8.3008,53.2227
1771936194818,AF7,46.3867,64.4531,63.4766,25.8789,13.6719,26.8555,26.8555,18.5547,24.9023,49.8047,56.6406,29.7852
1771936194862,TP10,75.1953,27.3438,-3.4180,25.3906,73.2422,39.0625,-4.3945,17.0898,54.6875,47.8516,3.4180,8.7891
1771936194862,AF8,5.8594,27.8320,48.8281,29.7852,9.7656,28.8086,39.0625,20.9961,-10.2539,3.9063,44.9219,48.8281
1771936194863,TP9,88.3789,51.7578,17.0898,35.6445,82.0313,58.1055,11.7188,30.7617,79.5898,79.5898,41.9922,25.8789
1771936194865,AF7,6.3477,26.3672,53.7109,31.2500,9.7656,29.2969,57.1289,51.2695,13.6719,16.6016,54.6875,48.3398
1771936194907,TP10,58.1055,73.7305,7.3242,-19.0430,26.8555,77.1484,45.4102,4.3945,25.8789,82.0313,56.6406,-8.7891
1771936194907,AF8,17.0898,11.7188,30.2734,33.2031,1.9531,-8.3008,36.1328,47.8516,15.6250,-5.3711,13.1836,37.1094
1771936194908,TP9,50.7813,78.1250,33.6914,1.9531,38.5742,93.2617,71.7773,27.3438,30.2734,84.4727,72.2656,0.4883
1771936194909,AF7,18.5547,18.5547,27.3438,32.7148,22.9492,15.6250,37.1094,54.1992,43.4570,26.8555,26.3672,28.3203
1771936194951,TP10,0.0000,70.3125,79.1016,18.5547,-8.3008,43.9453,84.9609,10.7422,-23.9258,33.6914,78.1250,33.6914
1771936194966,AF8,25.3906,5.3711,13.1836,43.4570,37.1094,16.6016,30.2734,31.2500,28.3203,34.1797,26.8555,34.1797
1771936194966,TP9,-6.8359,59.5703,69.8242,26.3672,6.3477,46.3867,98.1445,32.2266,-15.1367,38.0859,87.8906,47.8516
1771936194967,AF7,24.4141,16.1133,27.3438,55.1758,48.3398,28.3203,25.3906,31.2500,33.6914,23.4375,16.6016,32.2266
1771936195011,TP10,3.4180,43.9453,98.1445,56.6406,-13.1836,1.4648,64.4531,69.8242,10.2539,-1.4648,49.8047,76.1719
1771936195011,AF8,47.8516,49.3164,37.1094,41.0156,46.3867,41.9922,38.0859,39.0625,46.8750,47.8516,39.0625,30.2734
1771936195012,TP9,9.7656,41.9922,90.3320,59.5703,9.2773,13.6719,66.4063,83.9844,28.3203,14.1602,62.0117,88.8672
1771936195013,AF7,43.9453,43.9453,36.1328,32.7148,36.1328,26.8555,20.9961,32.2266,41.5039,48.8281,39.0625,29.2969
1771936195057,AF8,39.5508,41.5039,28.8086,32.7148,55.1758,63.4766,58.1055,34.6680,27.3438,38.0859,30.7617,20.0195
1771936195057,TP9,49.3164,17.0898,41.5039,89.3555,74.7070,31.2500,40.0391,88.8672,85.4492,32.2266,8.7891,60.5469
1771936195057,TP10,26.3672,-5.8594,29.2969,79.1016,56.1523,18.5547,39.0625,86.9141,68.3594,10.7422,-2.9297,57.1289
1771936195058,AF7,48.8281,47.8516,20.0195,11.7188,43.9453,59.5703,41.9922,27.3438,38.0859,54.6875,38.0859,28.3203
1771936195101,TP10,76.1719,12.6953,-4.3945,49.3164,86.4258,31.2500,-25.3906,14.1602,90.3320,51.2695,-25.8789,-11.2305
1771936195101,AF8,25.8789,44.4336,54.1992,38.5742,31.2500,48.8281,41.0156,35.1563,36.1328,36.1328,38.0859,34.6680
1771936195116,TP9,87.4023,37.1094,4.8828,45.4102,84.9609,48.8281,4.3945,31.2500,103.0273,64.4531,-8.7891,6.8359
1771936195116,AF7,37.5977,41.9922,38.5742,28.8086,37.1094,59.5703,50.7813,39.0625,42.9688,46.3867,46.3867,42.9688
1771936195147,TP10,54.6875,49.8047,5.8594,-10.2539,35.1563,63.4766,-2.4414,-17.0898,35.1563,63.9648,27.8320,-6.3477
1771936195147,AF8,30.7617,37.5977,51.7578,42.4805,24.4141,34.1797,44.9219,41.5039,31.2500,24.9023,46.3867,44.9219
1771936195148,TP9,69.3359,65.4297,17.0898,11.7188,56.1523,83.0078,28.3203,6.8359,56.6406,83.0078,50.7813,15.1367
1771936195149,AF7,28.8086,39.5508,68.8477,54.6875,30.2734,27.3438,41.5039,56.1523,46.8750,31.2500,46.3867,47.8516
1771936195191,TP10,15.6250,63.9648,42.9688,2.9297,23.4375,68.8477,57.6172,7.3242,-16.1133,21.4844,54.6875,8.3008
1771936195192,AF8,25.8789,9.2773,16.6016,41.9922,49.8047,30.7617,20.0195,44.9219,49.8047,16.6016,13.1836,40.0391
1771936195192,TP9,20.9961,73.2422,59.0820,15.1367,43.4570,92.2852,72.7539,20.9961,-13.6719,16.6016,70.8008,41.5039
1771936195192,AF7,24.4141,6.3477,20.0195,53.7109,64.4531,46.8750,49.3164,54.6875,29.2969,15.6250,27.3438,51.2695
1771936195236,TP10,-10.2539,34.1797,87.8906,49.3164,-8.3008,12.2070,73.7305,63.4766,-4.8828,1.9531,70.3125,74.7070
1771936195236,AF8,48.8281,35.6445,26.3672,44.9219,48.3398,32.2266,16.1133,43.9453,49.8047,24.9023,20.5078,35.6445
1771936195237,TP9,15.1367,46.3867,94.2383,66.4063,19.5313,35.6445,97.6563,98.1445,20.9961,7.3242,65.4297,74.2188
1771936195238,AF7,62.0117,47.8516,43.4570,54.6875,66.8945,57.6172,31.7383,44.9219,52.7344,38.0859,25.8789,38.5742
1771936195281,TP10,12.6953,-8.3008,49.3164,80.5664,13.1836,-20.0195,25.3906,42.9688,-16.6016,-40.5273,-35.6445,0.0000
1771936195281,AF8,63.9648,54.6875,33.2031,30.7617,34.6680,43.9453,51.7578,25.8789,21.9727,56.6406,48.8281,18.5547
1771936195282,TP9,21.4844,4.3945,47.8516,79.5898,35.1563,3.4180,36.6211,75.1953,33.2031,4.3945,21.9727,61.5234
1771936195283,AF7,64.4531,57.6172,37.1094,43.9453,56.1523,47.3633,45.8984,41.9922,43.9453,73.7305,66.4063,22.9492
1771936195326,TP10,-15.1367,-66.8945,-38.0859,14.1602,15.1367,-28.8086,-43.9453,-4.3945,26.8555,-21.4844,-52.2461,-8.3008
1771936195341,AF8,22.9492,36.1328,41.5039,28.8086,25.8789,52.2461,52.2461,28.3203,13.6719,32.2266,44.9219,30.2734
1771936195341,TP9,55.6641,12.6953,14.1602,60.0586,83.0078,41.0156,9.2773,40.5273,80.0781,35.6445,6.3477,39.5508
1771936195342,AF7,28.3203,55.1758,54.6875,39.5508,44.9219,64.9414,51.7578,34.1797,31.7383,41.0156,51.2695,40.5273
1771936195372,TP10,54.6875,15.1367,-42.9688,-26.3672,29.2969,35.1563,-21.4844,-31.2500,29.2969,59.5703,-9.7656,-52.7344
1771936195373,AF8,35.1563,48.8281,36.6211,19.0430,6.3477,26.8555,49.8047,42.9688,31.2500,33.6914,34.1797,22.4609
1771936195386,TP9,92.7734,62.0117,-1.4648,10.2539,71.7773,70.8008,16.1133,-1.4648,48.3398,90.3320,36.1328,-11.2305
1771936195386,AF7,35.1563,41.5039,38.5742,31.7383,22.9492,46.3867,70.8008,44.9219,22.9492,36.6211,45.8984,36.6211
1771936195431,TP10,11.7188,62.5000,0.4883,-34.1797,10.2539,67.3828,37.5977,-28.3203,-7.3242,53.7109,36.1328,-17.0898
1771936195432,AF8,25.8789,24.4141,28.3203,56.6406,50.7813,22.4609,26.8555,30.7617,27.8320,29.2969,34.1797,49.3164
1771936195432,TP9,32.2266,78.1250,29.7852,3.4180,39.0625,83.9844,61.5234,0.4883,10.7422,70.3125,72.2656,28.3203
1771936195432,AF7,36.6211,31.7383,32.7148,47.8516,48.8281,28.8086,41.9922,53.7109,43.4570,37.1094,40.0391,47.3633
1771936195477,TP10,-22.9492,38.5742,66.4063,8.7891,-25.3906,12.2070,56.1523,-0.9766,-39.0625,-8.7891,34.6680,23.4375
1771936195477,AF8,41.0156,12.2070,9.7656,29.2969,30.7617,22.9492,17.5781,25.3906,51.2695,37.1094,-2.9297,20.9961
1771936195477,TP9,8.7891,58.5938,95.7031,42.9688,3.4180,39.0625,83.9844,38.5742,3.4180,34.1797,75.6836,69.8242
1771936195478,AF7,43.9453,32.7148,35.1563,45.8984,39.0625,35.6445,37.1094,44.4336,54.1992,44.4336,25.8789,48.3398
1771936195521,TP10,-30.7617,-35.6445,34.1797,35.1563,-22.9492,-37.1094,0.4883,44.4336,-8.3008,-62.0117,-13.6719,43.4570
1771936195521,AF8,51.7578,38.5742,17.5781,6.3477,14.1602,28.3203,18.5547,15.6250,38.0859,29.7852,17.5781,8.7891
1771936195522,TP9,22.4609,6.3477,61.0352,77.6367,22.4609,9.2773,51.2695,99.6094,62.9883,0.9766,25.3906,81.0547
1771936195523,AF7,62.9883,41.0156,35.6445,39.5508,39.0625,36.6211,23.4375,34.1797,60.0586,42.9688,22.4609,30.2734
1771936195566,TP10,9.7656,-30.2734,-10.2539,48.3398,33.2031,-21.9727,-14.6484,52.2461,47.3633,-23.9258,-33.2031,18.0664
1771936195566,AF8,20.0195,28.3203,33.6914,26.8555,19.0430,33.2031,31.7383,21.4844,13.1836,20.9961,35.6445,26.8555
1771936195567,TP9,57.1289,3.4180,20.5078,79.5898,67.8711,21.4844,22.4609,79.1016,83.9844,21.9727,9.2773,58.1055
1771936195568,AF7,49.3164,48.3398,47.3633,36.1328,29.7852,48.3398,57.1289,50.2930,39.0625,39.0625,49.8047,40.0391
1771936195611,TP10,46.8750,-15.1367,-42.9688,-3.4180,59.0820,45.4102,-1.4648,15.1367,57.6172,50.7813,-4.3945,-6.8359
1771936195611,AF8,13.1836,25.8789,40.0391,24.9023,5.8594,25.3906,45.4102,48.3398,24.9023,25.3906,37.5977,21.9727
1771936195612,TP9,88.8672,37.1094,5.8594,34.6680,90.3320,79.1016,37.1094,45.4102,74.7070,64.9414,14.6484,3.9063
1771936195613,AF7,17.5781,27.8320,44.9219,38.5742,36.1328,57.6172,70.3125,70.8008,39.5508,29.7852,44.9219,39.5508
1771936195657,TP10,57.1289,80.5664,40.0391,14.1602,38.5742,78.6133,26.8555,-24.4141,21.4844,82.5195,53.2227,-2.9297
1771936195657,AF8,3.9063,17.5781,51.7578,48.8281,23.4375,14.1602,31.2500,39.0625,32.2266,21.9727,33.6914,54.6875
1771936195658,TP9,58.1055,93.7500,52.7344,18.0664,40.5273,78.6133,45.4102,-5.8594,17.0898,70.8008,54.1992,4.8828
1771936195659,AF7,30.7617,52.2461,79.1016,64.4531,38.0859,23.9258,30.2734,35.6445,37.5977,33.2031,50.7813,67.8711
1771936195701,TP10,14.6484,77.1484,47.3633,-21.9727,-14.6484,51.2695,69.8242,-12.2070,-41.9922,20.0195,50.2930,3.4180
1771936195716,AF8,38.5742,17.0898,18.5547,35.1563,55.6641,40.5273,32.2266,48.8281,57.6172,41.9922,23.9258,53.7109
1771936195716,TP9,6.3477,62.9883,57.1289,-6.8359,-4.8828,61.0352,85.4492,12.2070,-31.2500,13.1836,57.1289,22.4609
1771936195717,AF7,60.5469,45.8984,36.6211,34.6680,44.9219,53.2227,48.3398,46.3867,55.1758,54.6875,37.5977,54.6875
1771936195761,TP10,-17.5781,-12.6953,21.4844,14.1602,-28.3203,-22.4609,29.2969,31.2500,-21.9727,-21.9727,26.3672,45.4102
1771936195761,AF8,78.6133,52.7344,27.3438,46.3867,64.9414,52.7344,36.6211,42.4805,55.1758,61.0352,38.5742,9.2773
1771936195762,TP9,-12.2070,-1.9531,49.3164,35.1563,-17.5781,-7.8125,47.3633,55.6641,9.2773,16.6016,48.8281,56.1523
1771936195763,AF7,77.6367,55.1758,21.9727,28.8086,58.1055,54.6875,39.0625,36.6211,52.2461,71.2891,49.8047,25.8789
1771936195807,TP10,-3.9063,-31.7383,8.3008,72.2656,52.7344,-3.9063,11.7188,79.5898,72.2656,8.7891,5.8594,70.3125
1771936195807,AF8,33.2031,47.3633,30.2734,23.9258,42.4805,46.8750,31.7383,3.9063,5.3711,32.2266,24.9023,13.6719
1771936195807,TP9,22.9492,-7.3242,22.4609,81.0547,65.4297,19.0430,31.7383,85.4492,85.4492,37.5977,20.9961,70.8008
1771936195808,AF7,42.4805,45.8984,28.8086,28.8086,53.2227,50.7813,42.9688,34.6680,30.2734,44.4336,41.5039,26.8555
1771936195852,TP10,82.5195,23.4375,0.9766,59.0820,87.8906,38.0859,14.6484,26.8555,69.3359,47.8516,-0.4883,10.2539
1771936195852,TP9,91.7969,41.0156,8.3008,52.2461,92.2852,50.2930,16.1133,34.6680,90.8203,75.6836,16.6016,20.9961
1771936195852,AF8,17.0898,26.3672,17.0898,12.6953,12.6953,20.5078,23.9258,4.3945,3.9063,25.3906,22.9492,19.5313
1771936195853,AF7,29.7852,49.8047,48.8281,39.5508,23.9258,34.1797,49.3164,28.8086,17.5781,45.8984,47.8516,29.7852
1771936195897,TP10,73.7305,68.3594,1.9531,4.8828,76.6602,82.5195,6.8359,-13.6719,26.8555,56.6406,16.1133,-21.9727
1771936195897,AF8,15.1367,14.1602,20.5078,30.2734,25.8789,8.7891,26.8555,42.9688,23.4375,2.9297,31.2500,47.8516
1771936195898,TP9,84.9609,76.6602,5.8594,15.6250,80.5664,84.4727,23.4375,13.6719,55.6641,78.1250,33.2031,-3.9063
1771936195899,AF7,27.3438,32.7148,35.6445,43.4570,42.9688,26.8555,33.2031,52.7344,44.9219,37.1094,45.8984,46.3867
1771936195941,TP10,8.3008,65.4297,41.5039,-0.4883,8.3008,67.8711,63.9648,1.9531,-1.9531,49.3164,69.3359,14.1602
1771936195941,AF8,16.6016,-3.4180,14.1602,36.1328,28.3203,5.3711,14.1602,42.4805,39.5508,9.2773,8.7891,26.3672
1771936195942,TP9,20.9961,65.9180,37.1094,-4.3945,12.6953,70.8008,68.8477,20.0195,3.4180,40.0391,76.6602,31.2500
1771936195942,AF7,29.7852,13.6719,28.8086,44.4336,40.0391,36.1328,39.0625,47.3633,36.1328,6.8359,11.2305,34.1797
1771936195986,TP10,-3.4180,54.1992,107.9102,52.7344,-9.7656,14.1602,74.2188,58.1055,0.4883,2.4414,74.2188,84.9609
1771936195986,AF8,29.2969,33.6914,37.5977,28.8086,20.9961,20.0195,11.2305,28.3203,40.0391,28.8086,26.3672,44.4336
1771936195987,TP9,-0.9766,46.3867,100.5859,53.7109,-0.4883,15.6250,81.5430,83.0078,18.5547,5.3711,71.2891,93.2617
1771936195988,AF7,36.6211,45.8984,60.0586,54.6875,33.2031,12.6953,5.3711,27.3438,51.7578,49.3164,41.5039,52.7344
1771936196031,TP10,0.9766,-15.1367,61.0352,85.4492,24.4141,-3.9063,33.6914,65.4297,22.4609,-9.2773,21.9727,71.7773
1771936196032,AF8,32.7148,5.3711,6.3477,19.0430,30.2734,38.0859,42.9688,17.5781,14.6484,35.6445,28.8086,12.6953
1771936196032,TP9,13.1836,-12.6953,49.8047,81.5430,26.8555,7.8125,56.1523,80.0781,32.2266,9.2773,32.2266,73.7305
1771936196036,AF7,48.3398,25.8789,13.1836,20.5078,39.5508,50.7813,43.9453,17.5781,24.4141,48.8281,52.7344,40.5273
1771936196077,TP10,43.9453,-10.7422,0.0000,64.4531,75.6836,15.6250,-1.9531,41.5039,77.1484,23.4375,-29.2969,-1.4648
1771936196077,AF8,17.5781,38.5742,35.6445,22.9492,26.3672,38.0859,41.9922,18.0664,15.6250,44.4336,57.1289,25.3906
1771936196077,TP9,55.6641,0.9766,2.9297,53.7109,75.1953,33.6914,15.1367,53.2227,82.5195,34.1797,-1.9531,22.9492
1771936196078,AF7,33.6914,41.0156,35.1563,32.2266,53.7109,61.0352,50.7813,35.6445,36.6211,52.7344,54.1992,34.6680
1771936196122,TP10,51.2695,27.3438,-23.4375,-19.5313,43.4570,41.9922,-16.6016,-22.9492,38.0859,49.8047,-8.3008,-13.1836
1771936196122,AF8,-7.8125,28.3203,45.4102,11.7188,-8.7891,22.4609,37.5977,16.1133,12.6953,14.6484,36.1328,38.0859
1771936196123,TP9,77.6367,65.4297,11.7188,6.3477,58.1055,78.6133,25.8789,2.4414,63.9648,77.1484,19.5313,2.4414
1771936196124,AF7,21.4844,52.7344,55.6641,22.9492,12.6953,35.1563,45.8984,36.6211,30.7617,21.4844,41.5039,47.3633
1771936196181,TP10,37.5977,66.4063,7.3242,-30.7617,11.7188,76.6602,32.2266,-21.9727,-7.3242,48.8281,42.9688,-15.1367
1771936196181,AF8,11.7188,7.3242,20.0195,35.1563,24.9023,14.6484,25.8789,32.7148,22.4609,4.3945,5.8594,28.3203
1771936196182,TP9,35.1563,68.3594,24.4141,0.4883,42.9688,94.7266,62.5000,9.2773,17.0898,76.1719,68.3594,0.9766
1771936196182,AF7,25.3906,24.4141,32.7148,45.4102,47.8516,38.0859,49.8047,58.1055,45.4102,31.7383,28.3203,40.0391
1771936196226,TP10,-8.3008,52.7344,59.5703,-7.3242,-22.4609,31.2500,60.5469,1.4648,-28.8086,-2.4414,44.4336,24.9023
1771936196226,AF8,36.6211,23.4375,11.7188,26.8555,50.2930,35.1563,0.9766,10.2539,36.6211,32.2266,14.1602,26.3672
1771936196227,TP9,-1.4648,57.1289,72.7539,19.0430,4.8828,48.3398,72.7539,30.7617,3.9063,22.9492,60.5469,52.7344
1771936196228,AF7,41.9922,27.3438,21.4844,38.5742,52.7344,47.8516,20.9961,20.9961,35.6445,32.2266,25.3906,44.9219
1771936196271,TP10,-23.4375,-10.2539,49.8047,47.3633,-13.6719,-15.6250,27.3438,50.7813,6.8359,-28.8086,8.7891,61.0352
1771936196271,AF8,46.8750,36.1328,8.3008,20.9961,45.4102,49.8047,40.5273,28.3203,35.1563,35.1563,17.5781,18.0664
1771936196272,TP9,8.7891,-1.4648,47.8516,62.0117,14.1602,9.7656,46.3867,78.1250,49.8047,10.2539,22.9492,72.2656
1771936196273,AF7,68.3594,58.5938,27.8320,25.8789,45.8984,53.2227,32.2266,35.6445,70.8008,60.5469,32.7148,24.9023
1771936196316,TP10,14.1602,-34.1797,0.0000,58.5938,39.5508,-15.1367,-14.6484,43.4570,47.8516,-17.5781,-20.5078,48.3398
1771936196316,AF8,29.7852,35.1563,36.6211,30.7617,32.2266,38.5742,26.3672,10.2539,16.6016,30.2734,32.7148,13.6719
1771936196317,TP9,40.0391,-15.6250,9.2773,78.6133,74.7070,11.7188,1.4648,62.9883,71.7773,12.6953,3.4180,49.8047
1771936196318,AF7,27.8320,40.5273,47.3633,51.7578,58.1055,47.3633,26.8555,11.2305,16.1133,32.2266,43.4570,36.6211
1771936196362,TP10,71.7773,3.4180,-19.5313,16.6016,58.1055,19.0430,-30.2734,-0.4883,58.1055,43.9453,-8.7891,-3.4180
1771936196362,AF8,0.4883,27.3438,45.4102,19.0430,-4.8828,22.4609,39.5508,29.2969,10.2539,7.3242,31.2500,35.6445
1771936196363,TP9,87.4023,39.5508,8.7891,45.4102,85.9375,57.1289,16.1133,35.1563,81.5430,76.1719,28.8086,23.4375
1771936196364,AF7,26.3672,45.8984,56.1523,32.2266,12.6953,27.8320,44.9219,49.3164,32.7148,31.7383,53.2227,50.2930
1771936196406,TP10,54.6875,52.2461,-11.7188,-27.8320,12.2070,45.4102,13.1836,-10.7422,6.3477,55.6641,30.7617,-20.5078
1771936196406,AF8,19.5313,24.9023,38.0859,22.4609,-4.3945,-8.7891,31.2500,49.3164,17.5781,19.5313,32.7148,20.9961
1771936196407,TP9,72.2656,83.0078,34.6680,2.4414,34.6680,80.0781,57.6172,23.4375,25.3906,75.6836,59.0820,16.1133
1771936196407,AF7,36.6211,37.1094,50.7813,45.8984,14.1602,7.8125,45.8984,68.3594,36.1328,12.6953,25.8789,36.1328
1771936196452,TP10,-1.9531,58.1055,44.9219,-21.9727,-9.2773,57.1289,73.2422,8.7891,-26.3672,19.5313,73.7305,26.8555
1771936196467,AF8,5.8594,-7.3242,3.4180,19.5313,35.1563,23.9258,26.3672,39.5508,25.8789,13.6719,9.7656,24.9023
1771936196467,TP9,20.9961,70.3125,69.8242,8.3008,0.4883,55.1758,89.3555,31.2500,-1.4648,43.9453,86.9141,45.4102
1771936196468,AF7,29.2969,12.2070,17.5781,39.0625,50.7813,32.2266,24.9023,50.7813,51.2695,21.9727,18.5547,44.4336
1771936196512,TP10,-11.2305,15.6250,57.6172,28.8086,-15.1367,16.1133,64.9414,65.9180,17.0898,13.6719,53.7109,57.6172
1771936196512,AF8,37.5977,36.1328,14.6484,16.1133,35.6445,45.8984,16.1133,14.1602,42.9688,42.4805,22.4609,9.7656
1771936196513,TP9,-2.4414,18.0664,65.4297,42.9688,1.4648,20.5078,62.0117,57.6172,18.0664,24.4141,51.2695,59.0820
1771936196514,AF7,57.1289,53.7109,33.2031,28.8086,48.3398,59.0820,31.7383,27.3438,50.2930,57.1289,41.5039,32.2266
1771936196557,TP10,7.8125,-20.0195,18.5547,67.3828,44.9219,-5.3711,11.2305,76.6602,52.7344,-3.4180,-18.5547,45.4102
1771936196557,AF8,28.3203,52.2461,48.3398,28.8086,43.4570,46.8750,19.5313,-5.8594,18.0664,55.1758,29.7852,1.4648
1771936196558,TP9,19.0430,-14.1602,19.5313,79.5898,59.5703,-4.8828,-2.9297,54.6875,55.1758,11.2305,-8.7891,45.8984
1771936196559,AF7,45.4102,52.2461,52.2461,47.8516,48.8281,50.2930,31.7383,0.9766,17.5781,45.8984,29.2969,16.6016
1771936196617,TP10,68.8477,7.3242,-4.8828,35.1563,57.1289,9.2773,-18.0664,17.0898,63.9648,16.1133,-43.4570,0.9766
1771936196617,AF8,20.9961,42.9688,32.2266,10.2539,5.3711,25.3906,33.6914,24.4141,26.3672,32.2266,26.8555,34.1797
1771936196618,TP9,71.7773,22.9492,-9.2773,34.6680,80.5664,35.6445,-4.3945,30.2734,97.1680,58.5938,3.4180,39.0625
1771936196619,AF7,40.5273,63.9648,47.3633,22.9492,13.6719,24.9023,36.6211,34.1797,27.8320,31.7383,49.8047,65.9180
1771936196648,TP10,65.4297,33.6914,-19.0430,-10.2539,32.7148,32.2266,-28.8086,-32.7148,18.5547,55.6641,6.3477,-26.3672
1771936196648,AF8,17.0898,12.2070,24.9023,26.3672,18.5547,8.3008,8.7891,24.4141,14.6484,4.3945,22.9492,32.2266
1771936196649,TP9,95.7031,81.5430,22.4609,14.6484,68.3594,78.1250,24.4141,8.7891,48.8281,83.4961,44.9219,18.5547
1771936196650,AF7,44.9219,26.8555,41.0156,45.4102,26.3672,18.5547,34.1797,58.1055,41.9922,31.2500,55.1758,51.2695
1771936196692,TP10,9.7656,44.4336,8.7891,-39.0625,-5.8594,62.9883,49.3164,-12.2070,-21.9727,23.9258,46.8750,-1.9531
1771936196692,AF8,29.7852,-1.9531,-11.7188,10.2539,18.0664,7.8125,25.3906,53.7109,40.0391,2.4414,3.9063,25.8789
1771936196693,TP9,39.0625,71.2891,45.8984,8.3008,23.9258,84.4727,86.9141,31.7383,14.6484,43.9453,66.4063,22.4609
1771936196695,AF7,23.4375,8.3008,18.5547,34.6680,43.9453,32.2266,43.9453,68.3594,54.1992,23.4375,19.0430,33.6914
1771936196738,TP10,-28.3203,12.2070,68.8477,28.8086,-23.4375,2.9297,63.9648,33.6914,-21.4844,-13.1836,29.2969,20.0195
1771936196738,AF8,30.2734,24.4141,18.5547,32.7148,41.0156,23.9258,9.7656,25.3906,43.4570,38.5742,25.8789,27.8320
1771936196738,TP9,-2.4414,34.6680,83.0078,42.9688,-7.3242,23.4375,86.9141,66.8945,7.3242,10.7422,65.9180,67.8711
1771936196739,AF7,37.5977,32.2266,42.9688,62.5000,59.0820,41.9922,24.9023,36.6211,56.6406,48.3398,29.2969,44.4336
1771936196782,TP10,-49.8047,-67.8711,-4.3945,39.5508,-21.9727,-35.6445,31.2500,57.6172,-5.8594,-35.1563,7.8125,52.7344
1771936196783,AF8,32.2266,23.9258,16.1133,22.9492,38.0859,51.2695,42.4805,25.3906,28.3203,52.7344,59.5703,18.0664
1771936196783,TP9,12.6953,-0.4883,51.2695,72.2656,12.6953,4.3945,56.1523,83.9844,29.2969,-7.3242,21.9727,66.8945
1771936196784,AF7,69.8242,59.5703,35.1563,29.2969,36.6211,40.5273,39.0625,31.2500,38.0859,64.4531,60.5469,37.1094
1771936196827,TP10,12.2070,-41.5039,-15.1367,46.3867,43.4570,-3.4180,-16.6016,14.1602,41.5039,-8.3008,-31.7383,12.2070
1771936196842,AF8,13.6719,45.4102,57.1289,39.0625,30.7617,53.7109,56.6406,36.6211,27.8320,53.7109,70.3125,47.3633
1771936196842,TP9,42.9688,-12.2070,6.8359,63.4766,62.5000,23.9258,3.4180,28.8086,70.3125,29.7852,-2.4414,26.3672
1771936196844,AF7,39.0625,54.1992,63.9648,57.1289,58.1055,81.5430,81.0547,48.8281,44.9219,71.7773,90.3320,73.2422
1771936196873,TP10,48.8281,16.1133,-22.9492,-3.9063,51.2695,33.2031,-21.9727,-20.5078,55.6641,68.3594,2.4414,-2.9297
1771936196873,AF8,32.2266,64.4531,71.7773,45.8984,34.6680,40.5273,51.7578,49.3164,40.5273,47.8516,71.7773,71.7773
1771936196874,TP9,66.8945,50.7813,5.8594,5.8594,60.5469,60.0586,3.9063,-0.9766,59.5703,85.9375,31.7383,11.2305
1771936196876,AF7,47.8516,76.6602,97.6563,70.8008,48.3398,68.3594,80.5664,65.4297,59.0820,69.8242,96.1914,101.0742
1771936196933,TP10,37.5977,64.9414,18.5547,-19.0430,11.7188,77.6367,38.5742,-20.0195,21.9727,81.5430,42.4805,-27.8320
1771936196933,AF8,39.0625,11.2305,14.6484,26.8555,34.6680,41.0156,48.8281,50.2930,46.8750,18.0664,7.3242,35.6445
1771936196933,TP9,52.7344,85.9375,38.0859,-3.9063,31.7383,103.0273,67.8711,3.4180,34.1797,81.5430,54.1992,4.3945
1771936196933,AF7,67.3828,44.9219,53.2227,62.0117,55.1758,58.1055,83.4961,93.7500,89.8438,56.1523,30.2734,47.3633
1771936196977,TP10,-14.1602,49.8047,58.5938,0.9766,-2.9297,52.2461,73.7305,25.3906,-2.4414,27.8320,66.4063,31.2500
1771936196977,AF8,32.2266,16.1133,22.4609,37.1094,30.7617,12.2070,7.8125,34.6680,53.7109,36.6211,12.2070,20.9961
1771936196978,TP9,2.4414,52.2461,74.7070,33.2031,14.6484,47.8516,83.9844,52.2461,22.9492,43.4570,80.5664,57.6172
1771936196979,AF7,53.2227,41.9922,49.8047,75.6836,84.4727,61.5234,44.4336,67.8711,81.5430,61.0352,44.9219,53.2227
1771936197022,TP10,-23.4375,-12.6953,60.0586,67.8711,-1.9531,-1.9531,57.6172,54.6875,-11.7188,-32.7148,16.6016,71.2891
1771936197022,AF8,36.1328,24.4141,10.7422,30.7617,50.7813,48.8281,27.8320,6.8359,23.9258,31.2500,28.8086,36.6211
1771936197023,TP9,11.2305,15.1367,76.6602,94.2383,30.7617,23.9258,72.7539,76.1719,26.8555,-1.9531,38.0859,91.7969
1771936197024,AF7,57.1289,41.5039,36.1328,51.7578,73.7305,96.1914,74.2188,43.9453,50.2930,45.4102,39.0625,46.3867
1771936197067,TP10,18.5547,-33.6914,18.0664,66.4063,32.2266,-18.5547,-26.8555,39.0625,38.5742,-29.7852,-23.4375,23.4375
1771936197067,AF8,31.2500,19.0430,32.7148,18.0664,12.6953,31.7383,20.5078,7.3242,6.8359,22.9492,47.3633,26.3672
1771936197068,TP9,46.8750,0.4883,46.8750,90.3320,58.1055,12.2070,6.3477,61.0352,66.4063,0.0000,3.9063,41.0156
1771936197069,AF7,54.6875,59.0820,81.5430,72.2656,44.4336,41.0156,35.1563,30.2734,37.5977,58.1055,75.6836,50.7813
1771936197113,TP10,43.9453,-3.9063,-27.3438,3.9063,39.5508,15.1367,-20.9961,4.3945,54.6875,28.8086,-22.9492,-25.8789
1771936197113,AF8,10.2539,42.4805,52.2461,29.2969,17.5781,28.8086,46.8750,48.8281,26.3672,35.1563,47.8516,29.7852
1771936197114,TP9,67.8711,41.5039,5.3711,20.5078,66.8945,53.7109,16.6016,36.1328,78.6133,58.5938,12.6953,13.1836
1771936197116,AF7,41.9922,73.7305,69.3359,36.1328,29.2969,52.2461,62.0117,53.7109,38.5742,49.8047,65.9180,54.6875
1771936197157,TP10,24.4141,34.6680,-35.6445,-59.5703,-11.2305,1.9531,-53.7109,-75.1953,-42.4805,4.3945,-30.2734,-81.0547
1771936197157,AF8,13.1836,21.9727,38.0859,35.1563,25.8789,25.3906,38.0859,42.4805,22.4609,9.2773,18.5547,30.7617
1771936197158,TP9,65.9180,76.1719,22.4609,3.4180,45.8984,79.5898,44.9219,18.5547,30.7617,89.3555,64.4531,6.8359
1771936197158,AF7,35.6445,47.3633,63.9648,58.5938,44.4336,32.2266,44.9219,59.5703,43.9453,29.2969,43.4570,49.8047
1771936197202,TP10,-53.7109,3.9063,-14.1602,-70.3125,-63.4766,12.6953,32.2266,-31.2500,-40.0391,18.0664,60.0586,13.1836
1771936197202,AF8,31.2500,21.9727,30.7617,43.4570,27.3438,8.7891,21.4844,35.1563,27.3438,17.0898,11.7188,33.2031
1771936197217,TP9,25.3906,77.6367,67.8711,9.7656,6.8359,70.3125,101.5625,32.7148,0.9766,43.4570,82.0313,48.8281
1771936197217,AF7,55.1758,51.2695,50.7813,58.1055,48.3398,31.7383,33.2031,38.5742,49.3164,50.2930,41.0156,54.1992
1771936197262,TP10,-31.7383,-5.3711,59.0820,32.2266,-10.7422,19.0430,72.2656,57.1289,5.3711,15.1367,55.1758,65.9180
1771936197262,AF8,28.3203,1.4648,-14.6484,3.4180,33.6914,31.2500,9.7656,15.1367,44.4336,59.0820,21.4844,-2.4414
1771936197263,TP9,1.4648,17.5781,65.9180,49.3164,6.3477,30.7617,82.0313,69.3359,25.3906,25.8789,53.7109,64.4531
1771936197264,AF7,49.3164,19.0430,2.9297,21.9727,45.8984,51.7578,34.6680,25.3906,50.7813,64.9414,29.2969,17.0898
1771936197307,TP10,20.9961,3.9063,50.2930,83.9844,45.4102,20.0195,36.6211,78.1250,69.3359,19.0430,2.9297,64.9414
1771936197307,AF8,12.2070,27.8320,25.3906,13.6719,30.2734,55.6641,34.6680,0.0000,21.4844,39.5508,13.6719,5.3711
1771936197323,TP9,26.8555,12.2070,40.0391,70.8008,40.0391,10.7422,24.4141,76.6602,77.1484,18.5547,3.4180,62.5000
1771936197323,AF7,37.5977,50.7813,48.8281,32.2266,38.0859,60.0586,58.5938,40.5273,52.7344,61.0352,37.1094,27.3438
1771936197352,TP10,80.0781,10.7422,-8.3008,55.6641,88.3789,34.6680,5.8594,46.3867,95.7031,46.8750,3.9063,38.5742
1771936197352,AF8,28.8086,43.4570,37.5977,17.0898,17.5781,43.9453,47.3633,30.7617,7.3242,16.6016,50.2930,46.8750
1771936197353,TP9,82.0313,13.1836,-7.3242,48.8281,84.4727,47.3633,9.2773,37.5977,75.6836,34.1797,0.4883,27.8320
1771936197354,AF7,41.5039,48.8281,41.5039,38.5742,49.3164,52.7344,49.8047,43.9453,22.9492,28.3203,49.8047,48.3398
1771936197397,TP10,94.7266,63.4766,5.8594,15.6250,63.9648,78.6133,10.7422,-10.7422,49.3164,67.8711,16.6016,-5.8594
1771936197397,AF8,22.4609,23.4375,34.6680,40.5273,33.6914,33.6914,45.8984,47.3633,32.2266,13.6719,32.2266,44.4336
1771936197398,TP9,83.0078,60.0586,2.9297,13.6719,68.3594,81.0547,10.7422,-6.3477,58.5938,80.0781,31.2500,2.9297
1771936197399,AF7,38.0859,37.5977,37.1094,36.6211,32.2266,40.5273,43.4570,47.3633,53.2227,28.3203,31.7383,41.0156
1771936197443,TP10,36.6211,75.1953,36.1328,-9.7656,3.9063,66.4063,54.1992,4.3945,1.9531,42.4805,47.3633,2.4414
1771936197443,AF8,31.7383,16.6016,41.0156,60.0586,41.0156,24.9023,32.2266,49.3164,36.6211,5.8594,8.7891,44.9219
1771936197443,TP9,28.8086,69.8242,44.9219,6.8359,14.1602,64.4531,62.9883,19.0430,21.4844,59.0820,75.6836,38.0859
1771936197444,AF7,26.8555,21.4844,44.9219,56.1523,30.7617,10.2539,23.4375,52.7344,48.3398,24.4141,34.1797,65.9180
1771936197502,TP10,-5.8594,31.7383,73.2422,16.6016,-28.8086,21.9727,81.5430,40.0391,-14.1602,13.6719,78.1250,58.5938
1771936197502,AF8,39.5508,5.8594,3.4180,20.5078,29.7852,37.1094,37.1094,42.9688,51.2695,38.5742,15.1367,12.2070
1771936197503,TP9,4.3945,28.8086,74.2188,37.1094,-0.4883,37.5977,95.7031,72.7539,9.2773,10.7422,77.1484,67.8711
1771936197504,AF7,46.8750,10.2539,14.1602,32.7148,37.1094,35.6445,49.3164,64.4531,59.5703,51.7578,44.4336,31.7383
1771936197532,TP10,-16.1133,-8.3008,49.3164,58.5938,3.4180,-15.1367,34.6680,75.1953,23.9258,-20.0195,20.0195,72.7539
1771936197534,AF8,27.8320,41.5039,28.3203,20.9961,42.4805,55.1758,42.9688,32.7148,36.1328,41.9922,45.4102,37.1094
1771936197534,TP9,5.8594,3.4180,41.5039,60.5469,11.2305,-5.3711,37.1094,67.8711,30.2734,-8.3008,29.2969,76.6602
1771936197534,AF7,39.0625,56.6406,40.0391,32.7148,46.8750,60.5469,51.7578,39.0625,51.7578,51.7578,43.9453,37.5977
1771936197578,TP10,31.7383,-25.8789,-11.2305,52.7344,51.7578,-3.9063,-8.3008,34.1797,51.2695,-3.4180,-36.6211,3.4180
1771936197579,AF8,39.0625,42.9688,38.0859,30.2734,39.0625,68.8477,79.5898,54.1992,32.7148,34.1797,39.5508,28.3203
1771936197580,TP9,24.4141,-27.8320,-9.2773,37.5977,37.1094,-8.7891,-20.0195,20.5078,52.2461,12.2070,-19.0430,14.6484
1771936197581,AF7,44.4336,53.2227,44.9219,35.1563,42.9688,63.9648,65.4297,39.0625,35.6445,48.8281,45.8984,30.7617
1771936197638,TP10,54.6875,28.8086,-16.1133,-9.2773,50.7813,43.9453,-19.0430,-27.8320,46.8750,49.8047,-15.6250,-12.6953
1771936197638,AF8,21.9727,56.1523,63.4766,33.2031,17.0898,39.5508,54.6875,31.2500,18.5547,20.9961,33.6914,43.4570
1771936197639,TP9,72.2656,45.4102,-5.3711,2.9297,60.5469,71.7773,19.0430,-0.9766,62.9883,72.7539,16.1133,14.6484
1771936197643,AF7,30.2734,59.5703,62.5000,39.0625,25.8789,47.3633,59.0820,34.1797,29.2969,37.5977,54.1992,69.3359
1771936197682,TP10,28.3203,59.0820,10.2539,-22.4609,28.8086,88.8672,42.9688,-12.6953,28.3203,82.0313,41.0156,-9.7656
1771936197684,AF8,14.6484,3.4180,23.4375,27.3438,24.4141,27.3438,20.0195,21.4844,27.8320,7.3242,6.3477,18.5547
1771936197684,TP9,52.7344,84.9609,44.9219,0.9766,41.5039,101.5625,61.5234,18.5547,53.2227,106.9336,77.6367,15.6250
1771936197684,AF7,41.5039,20.5078,38.5742,46.8750,44.4336,41.0156,35.1563,45.4102,47.3633,28.3203,30.7617,46.8750
1771936197728,TP10,12.2070,70.8008,78.1250,15.1367,4.8828,68.3594,81.5430,11.2305,-1.4648,37.1094,73.2422,34.1797
1771936197728,AF8,20.9961,2.4414,-3.4180,25.3906,37.5977,19.5313,-3.9063,3.4180,25.8789,21.4844,5.3711,3.9063
1771936197728,TP9,31.7383,81.5430,82.5195,30.7617,15.1367,63.9648,92.7734,43.4570,19.5313,45.8984,84.9609,54.6875
1771936197729,AF7,47.8516,38.0859,37.1094,41.5039,51.2695,44.9219,28.8086,41.9922,62.5000,45.8984,29.2969,38.5742
1771936197774,TP10,-21.9727,2.9297,60.0586,42.4805,-6.3477,5.3711,56.6406,62.5000,1.4648,-25.3906,37.1094,79.1016
1771936197774,AF8,10.7422,2.4414,-22.4609,-22.4609,-6.3477,10.2539,-1.9531,-9.2773,10.7422,11.7188,6.3477,-2.4414
1771936197774,TP9,9.7656,21.9727,65.9180,53.7109,-4.3945,5.3711,57.6172,82.5195,30.2734,-13.6719,45.8984,98.6328
1771936197775,AF7,54.6875,60.0586,29.2969,23.9258,37.1094,44.4336,34.6680,31.2500,52.2461,54.6875,57.6172,37.5977
1771936197818,TP10,14.1602,-20.0195,19.0430,78.1250,52.2461,-13.6719,-5.3711,60.0586,50.2930,-0.9766,-4.8828,44.9219
1771936197818,AF8,-6.8359,1.4648,1.4648,-16.6016,-5.8594,11.7188,14.1602,17.5781,14.6484,15.1367,2.9297,-20.9961
1771936197818,TP9,39.5508,-0.4883,22.4609,67.3828,51.7578,-0.4883,10.7422,74.7070,72.7539,17.0898,2.9297,47.3633
1771936197819,AF7,25.3906,39.0625,36.6211,21.4844,34.1797,47.3633,51.2695,46.3867,38.5742,51.2695,40.5273,14.1602
1771936197863,TP10,75.1953,18.0664,-0.4883,40.0391,77.1484,33.2031,-6.3477,25.8789,73.7305,43.9453,3.9063,-6.3477
1771936197863,AF8,-14.1602,10.2539,17.5781,6.8359,-1.4648,12.2070,32.2266,29.2969,-1.9531,-4.8828,20.5078,11.7188
1771936197864,TP9,80.0781,32.7148,0.9766,39.0625,76.6602,41.5039,12.6953,34.1797,77.6367,54.6875,12.2070,10.7422
1771936197866,AF7,19.5313,46.3867,56.1523,31.7383,7.3242,28.8086,56.6406,58.1055,46.8750,46.8750,55.1758,42.9688
1771936197909,TP10,30.2734,38.5742,-12.2070,-23.9258,41.9922,84.4727,15.6250,-29.2969,-3.9063,56.1523,17.5781,-43.9453
1771936197909,AF8,-10.2539,-1.9531,15.1367,17.5781,20.9961,20.0195,25.8789,25.8789,-0.9766,0.4883,11.2305,9.7656
1771936197909,TP9,54.6875,62.5000,8.3008,-9.2773,42.9688,78.6133,41.0156,7.3242,12.6953,75.1953,45.8984,-17.5781
1771936197909,AF7,21.4844,28.8086,42.4805,36.6211,35.6445,42.4805,55.6641,48.3398,22.9492,35.6445,43.4570,31.7383
1771936197954,AF8,17.5781,13.6719,23.4375,37.1094,28.3203,10.7422,21.4844,35.1563,30.7617,23.4375,24.9023,20.9961
1771936197954,TP10,1.4648,65.4297,32.7148,-36.6211,-28.3203,52.2461,58.1055,-3.9063,-11.7188,46.3867,77.1484,5.3711
1771936197954,AF7,37.1094,38.5742,43.9453,45.8984,48.3398,47.8516,45.4102,55.1758,56.6406,45.4102,39.0625,45.8984
1771936197954,TP9,17.0898,79.5898,64.9414,10.7422,8.3008,65.9180,80.5664,21.9727,1.4648,45.4102,77.1484,24.9023
1771936198018,AF8,15.1367,7.3242,0.9766,23.9258,40.0391,40.5273,19.0430,13.1836,43.9453,38.5742,12.6953,4.3945
1771936198018,TP10,-32.7148,6.3477,62.0117,27.8320,-23.4375,3.4180,68.3594,54.6875,2.9297,5.8594,56.1523,57.6172
1771936198018,AF7,49.3164,36.6211,25.3906,44.9219,60.5469,51.2695,35.1563,39.5508,60.0586,57.6172,36.6211,25.3906
1771936198018,TP9,-10.2539,19.0430,76.1719,53.2227,8.7891,27.8320,77.6367,59.0820,14.1602,17.5781,64.9414,74.2188
1771936198057,TP10,-6.8359,-24.4141,28.3203,72.7539,29.2969,-0.4883,30.2734,80.0781,50.7813,-12.6953,-17.5781,47.3633
1771936198057,AF8,18.0664,39.5508,31.2500,12.2070,34.1797,48.8281,22.4609,12.2070,35.1563,34.1797,7.3242,-0.4883
1771936198059,TP9,19.0430,2.9297,40.0391,77.6367,48.8281,14.1602,28.8086,78.1250,69.3359,20.5078,8.3008,53.2227
1771936198059,AF7,34.6680,41.5039,37.5977,34.6680,47.3633,58.5938,45.8984,31.7383,59.5703,69.3359,24.4141,-1.9531
1771936198103,TP10,53.7109,-1.9531,-5.3711,48.3398,62.9883,0.0000,-21.4844,26.3672,79.1016,28.3203,-34.6680,8.3008
1771936198118,AF8,15.6250,28.8086,20.5078,13.6719,17.0898,31.7383,21.4844,-1.4648,6.8359,24.4141,19.0430,12.6953
1771936198118,TP9,59.0820,18.0664,10.2539,58.1055,82.5195,32.2266,-0.9766,35.6445,84.4727,39.5508,-12.2070,9.2773
1771936198118,AF7,16.6016,42.4805,46.3867,38.0859,37.1094,48.3398,43.9453,29.2969,25.8789,36.6211,40.0391,41.0156
1771936198149,TP10,68.8477,29.7852,-26.3672,-6.3477,46.3867,44.4336,-17.0898,-28.8086,37.5977,58.5938,-11.2305,-30.7617
1771936198149,AF8,17.0898,30.2734,29.7852,23.4375,16.6016,20.5078,23.4375,27.3438,26.3672,23.9258,39.0625,53.7109
1771936198149,TP9,73.7305,56.6406,0.4883,13.1836,58.1055,57.6172,2.4414,-3.4180,46.8750,59.5703,4.3945,-17.0898
1771936198149,AF7,41.5039,45.8984,61.5234,62.0117,33.6914,30.2734,52.2461,54.1992,45.4102,41.9922,40.5273,53.2227
1771936198192,TP10,17.5781,44.4336,-1.4648,-46.8750,-12.2070,43.9453,9.7656,-39.0625,-30.7617,18.0664,28.8086,-18.5547
1771936198192,AF8,40.5273,12.2070,33.6914,54.6875,40.5273,19.5313,19.5313,48.3398,58.5938,29.2969,23.9258,47.3633
1771936198193,TP9,19.5313,42.4805,13.6719,-24.4141,-6.8359,54.1992,35.6445,-5.8594,-4.8828,31.7383,46.8750,4.8828
1771936198193,AF7,54.1992,34.1797,44.9219,52.2461,41.0156,39.0625,51.7578,61.0352,57.6172,36.6211,34.1797,48.8281
1771936198237,TP10,-27.8320,13.1836,48.3398,4.3945,-23.4375,21.4844,74.7070,35.6445,-14.6484,20.5078,86.4258,69.8242
1771936198237,AF8,53.7109,22.9492,7.3242,30.7617,43.9453,31.2500,20.0195,30.2734,28.3203,27.8320,38.0859,39.0625
1771936198238,TP9,-3.9063,35.1563,69.3359,24.9023,-8.7891,17.0898,64.4531,41.5039,-10.2539,22.9492,97.6563,82.0313
1771936198238,AF7,62.0117,48.8281,32.7148,42.4805,46.8750,40.5273,31.7383,40.0391,51.2695,59.0820,57.1289,41.9922
1771936198282,TP10,-2.9297,-5.3711,69.3359,83.9844,20.5078,10.2539,60.5469,98.6328,31.2500,0.4883,54.1992,90.3320
1771936198283,AF8,33.2031,26.3672,19.0430,11.2305,27.8320,48.8281,33.6914,26.8555,39.5508,43.4570,35.1563,14.6484
1771936198283,TP9,15.1367,15.1367,69.8242,80.0781,31.2500,21.4844,68.8477,98.1445,29.2969,4.3945,49.3164,88.3789
1771936198284,AF7,44.9219,42.9688,26.3672,26.8555,45.8984,57.1289,56.6406,42.4805,26.8555,42.4805,56.1523,40.0391
1771936198342,TP10,45.4102,-0.4883,20.0195,77.1484,70.3125,16.1133,9.7656,62.5000,77.6367,20.5078,-0.4883,34.1797
1771936198343,AF8,17.5781,32.7148,44.4336,31.7383,28.3203,51.2695,51.2695,30.7617,20.9961,30.7617,30.2734,7.8125
1771936198343,TP9,60.5469,14.6484,32.2266,91.7969,84.9609,30.2734,15.6250,60.0586,89.3555,33.2031,3.4180,41.0156
1771936198344,AF7,38.0859,53.2227,59.5703,52.7344,51.7578,54.6875,44.9219,41.9922,48.3398,55.6641,64.9414,42.9688
1771936198387,TP10,79.1016,40.5273,0.0000,31.2500,72.7539,49.8047,1.9531,0.9766,52.7344,62.5000,-5.8594,-25.8789
1771936198387,AF8,2.9297,26.8555,35.6445,21.4844,6.8359,33.6914,43.4570,16.1133,-0.9766,25.8789,34.1797,10.2539
1771936198388,TP9,90.8203,60.0586,17.0898,26.3672,72.2656,73.2422,25.8789,15.6250,67.8711,98.1445,34.1797,-6.3477
1771936198388,AF7,30.7617,57.1289,63.4766,48.8281,32.7148,54.1992,80.0781,59.0820,25.8789,38.0859,56.1523,46.8750
1771936198432,TP10,41.0156,65.9180,-0.9766,-22.9492,41.0156,81.0547,16.1133,-27.8320,1.4648,61.0352,32.2266,-33.6914
1771936198433,AF8,11.7188,14.1602,13.1836,22.4609,29.7852,18.5547,32.2266,41.9922,20.9961,15.6250,26.3672,37.5977
1771936198433,TP9,51.2695,83.0078,29.7852,5.8594,53.7109,103.0273,57.1289,0.4883,24.9023,87.4023,53.2227,-10.2539
1771936198433,AF7,39.0625,39.0625,42.9688,57.1289,59.0820,40.0391,50.2930,60.5469,52.2461,38.5742,32.7148,44.4336
1771936198477,TP10,-13.1836,48.3398,36.6211,-17.0898,-12.6953,25.8789,30.7617,-20.0195,-35.6445,-5.3711,23.4375,-18.5547
1771936198477,AF8,37.5977,14.6484,12.2070,34.6680,44.4336,41.5039,26.3672,35.6445,69.8242,59.5703,27.3438,26.3672
1771936198478,TP9,2.9297,61.0352,69.3359,13.6719,-0.4883,37.5977,43.4570,0.9766,-10.7422,11.7188,39.5508,12.6953
1771936198479,AF7,49.8047,44.9219,47.3633,62.9883,68.3594,53.7109,31.7383,46.8750,73.7305,50.2930,13.1836,27.3438
1771936198522,TP10,-49.3164,-31.7383,30.2734,29.2969,-30.7617,-34.1797,20.5078,52.2461,-7.3242,-55.1758,0.0000,61.0352
1771936198522,AF8,41.5039,44.9219,22.4609,23.4375,41.0156,37.5977,13.6719,24.4141,53.7109,30.2734,9.7656,17.5781
1771936198523,TP9,-19.5313,-10.2539,41.9922,37.5977,-18.5547,-20.0195,31.7383,66.8945,20.9961,-29.2969,12.2070,65.4297
1771936198523,AF7,45.4102,31.7383,23.4375,35.1563,38.5742,27.3438,15.6250,49.3164,66.4063,32.7148,19.0430,17.0898
1771936198567,TP10,3.4180,-42.9688,-3.4180,44.9219,12.6953,-17.5781,2.9297,59.0820,33.2031,-41.5039,-12.6953,49.3164
1771936198567,AF8,27.8320,28.3203,13.1836,-6.8359,16.1133,53.7109,38.0859,0.0000,-0.9766,15.6250,18.0664,-0.9766
1771936198568,TP9,13.6719,-39.0625,-5.3711,54.6875,43.4570,14.6484,23.4375,72.2656,59.5703,-8.3008,-3.4180,52.7344
1771936198569,AF7,22.9492,18.5547,9.7656,6.3477,31.7383,63.4766,50.7813,22.9492,11.2305,8.7891,12.2070,11.7188
1771936198613,TP10,53.2227,-0.9766,-16.6016,33.6914,78.6133,26.8555,-21.4844,6.8359,52.2461,21.9727,-15.6250,0.9766
1771936198613,AF8,-5.3711,19.5313,34.6680,15.1367,4.8828,14.1602,15.6250,11.7188,-4.3945,18.0664,44.9219,20.5078
1771936198614,TP9,68.3594,21.4844,6.8359,53.2227,93.7500,46.3867,0.9766,25.8789,62.9883,42.4805,1.9531,9.2773
1771936198615,AF7,13.6719,23.9258,34.6680,33.6914,39.5508,44.4336,27.8320,15.1367,5.3711,24.4141,48.3398,36.1328
1771936198657,TP10,44.4336,38.5742,-9.2773,-18.0664,34.1797,61.0352,5.3711,-32.2266,-3.9063,50.2930,15.1367,-32.2266
1771936198657,AF8,-3.9063,8.7891,29.2969,27.8320,19.0430,15.1367,32.7148,37.5977,-3.9063,-16.6016,14.6484,31.2500
1771936198658,TP9,55.1758,49.3164,5.8594,5.8594,54.6875,73.7305,34.6680,6.8359,14.6484,71.7773,46.8750,-13.1836
1771936198658,AF7,13.1836,20.0195,57.1289,57.6172,27.8320,22.4609,52.2461,54.1992,10.7422,3.4180,27.8320,39.5508
1771936198703,TP10,-2.4414,56.1523,35.6445,-30.2734,-22.4609,47.3633,45.4102,-23.9258,-26.8555,39.0625,61.0352,-6.3477
1771936198719,AF8,24.9023,12.6953,15.1367,20.0195,20.9961,14.1602,8.7891,21.9727,31.2500,9.7656,-2.9297,10.2539
1771936198719,TP9,9.2773,75.6836,61.0352,-2.9297,-3.4180,51.7578,61.0352,5.3711,-14.1602,39.5508,75.6836,12.6953
1771936198719,AF7,29.7852,20.0195,38.5742,43.9453,31.7383,24.4141,27.8320,37.1094,35.6445,30.2734,20.5078,26.3672
1771936198762,TP10,-43.9453,0.9766,62.0117,17.5781,-32.2266,-5.8594,47.8516,29.2969,-26.8555,-25.8789,23.9258,42.9688
1771936198762,AF8,20.5078,19.5313,25.3906,32.7148,25.3906,9.7656,-10.2539,0.9766,19.5313,20.0195,2.9297,11.7188
1771936198764,TP9,-19.5313,28.3203,81.5430,45.4102,-10.7422,11.2305,68.8477,46.8750,-2.9297,9.7656,55.6641,65.4297
1771936198764,AF7,38.5742,33.2031,33.6914,41.0156,41.0156,31.7383,19.5313,34.1797,46.3867,32.7148,8.3008,17.5781
1771936198807,TP10,-0.9766,-37.5977,-5.8594,24.4141,-26.3672,-49.3164,-1.4648,39.5508,5.3711,-28.3203,-1.4648,55.1758
1771936198807,AF8,41.5039,29.7852,-10.2539,-15.6250,18.5547,27.8320,10.7422,-7.3242,11.7188,36.1328,27.8320,10.7422
1771936198808,TP9,23.9258,-1.9531,25.8789,64.4531,31.7383,1.4648,37.5977,79.1016,50.7813,14.1602,35.6445,81.5430
1771936198837,AF7,43.4570,36.6211,17.0898,18.5547,34.6680,37.5977,41.0156,24.9023,20.0195,35.1563,32.7148,21.4844
1771936198853,TP10,23.9258,-42.4805,-46.3867,-4.8828,11.2305,-36.6211,-68.3594,-19.5313,49.8047,-4.8828,-60.5469,-14.1602
1771936198853,AF8,16.6016,30.2734,21.4844,0.9766,2.9297,25.3906,28.8086,16.1133,15.6250,25.8789,26.3672,26.3672
1771936198854,TP9,60.0586,6.8359,4.8828,52.7344,83.0078,31.2500,-20.5078,20.9961,85.9375,41.9922,-11.2305,24.9023
1771936198855,AF7,26.8555,34.6680,31.7383,24.4141,31.7383,42.4805,30.2734,17.5781,27.8320,41.9922,35.6445,40.5273
1771936198897,TP10,43.9453,-3.4180,-47.8516,-10.2539,46.3867,38.5742,-25.8789,-41.9922,21.9727,30.7617,-27.3438,-39.0625
1771936198897,AF8,15.1367,13.1836,38.5742,43.4570,12.6953,19.5313,34.1797,25.8789,28.3203,10.2539,22.4609,41.5039
1771936198898,TP9,81.5430,40.5273,-8.7891,21.4844,78.6133,65.9180,0.0000,-1.4648,66.4063,75.1953,23.9258,7.3242
1771936198899,AF7,39.0625,18.5547,23.9258,43.9453,29.2969,15.1367,29.2969,35.1563,31.2500,27.3438,49.8047,57.1289
1771936198941,TP10,-3.4180,41.5039,0.0000,-41.5039,-13.1836,47.8516,25.3906,-22.9492,-12.2070,37.5977,46.3867,-22.9492
1771936198942,AF8,15.6250,5.3711,22.9492,30.7617,12.2070,6.8359,22.9492,35.6445,26.8555,-0.4883,16.6016,35.6445
1771936198943,TP9,29.7852,63.4766,37.1094,0.4883,18.0664,78.6133,59.0820,15.6250,25.3906,70.3125,84.4727,21.9727
1771936198943,AF7,20.5078,-4.3945,11.7188,33.2031,25.3906,11.7188,22.9492,43.9453,42.4805,21.9727,34.1797,45.4102
1771936198987,TP10,-42.4805,14.6484,48.3398,-4.8828,-31.2500,11.7188,58.1055,26.3672,-36.6211,-13.1836,62.9883,40.0391
1771936198987,AF8,33.2031,21.4844,2.9297,4.8828,12.6953,7.3242,0.0000,30.2734,37.5977,26.3672,28.3203,18.5547
1771936198988,TP9,-3.4180,48.3398,77.1484,21.9727,6.3477,43.4570,78.6133,62.0117,8.7891,18.5547,89.8438,70.8008
1771936198988,AF7,30.2734,6.8359,-0.4883,20.9961,36.1328,25.3906,20.0195,42.4805,46.8750,33.6914,26.3672,24.4141
1771936199031,TP10,-34.1797,-25.8789,51.7578,58.1055,3.4180,-14.1602,42.9688,81.5430,7.8125,-22.4609,6.3477,42.9688
1771936199032,AF8,14.6484,16.1133,12.2070,13.6719,31.7383,33.6914,28.3203,19.5313,5.3711,15.6250,6.8359,-3.4180
1771936199033,TP9,-5.8594,3.4180,66.4063,74.7070,19.0430,-5.8594,57.1289,97.6563,25.3906,-14.6484,16.6016,70.3125
1771936199034,AF7,26.8555,29.2969,26.8555,33.6914,45.8984,37.1094,42.4805,50.7813,34.1797,32.2266,28.3203,18.5547
1771936199078,TP10,16.1133,-32.7148,-15.1367,31.2500,-0.4883,-41.0156,-47.8516,-10.7422,19.0430,-31.7383,-51.2695,-7.8125
1771936199078,AF8,27.3438,46.8750,33.6914,0.0000,-8.7891,25.8789,25.3906,-7.8125,-1.4648,31.7383,35.6445,7.8125
1771936199079,TP9,49.8047,6.3477,23.9258,69.8242,58.5938,29.7852,18.0664,41.5039,71.7773,27.3438,-2.4414,32.2266
1771936199080,AF7,35.6445,55.1758,53.2227,28.8086,23.4375,62.0117,63.4766,25.8789,28.8086,52.2461,56.1523,25.8789
1771936199137,TP10,32.2266,10.7422,-27.8320,-15.1367,39.0625,25.8789,-14.6484,-14.6484,50.7813,58.1055,2.4414,1.9531
1771936199137,AF8,5.3711,36.6211,32.7148,2.4414,-13.6719,14.6484,44.4336,35.1563,7.8125,-2.9297,11.7188,12.6953
1771936199138,TP9,74.7070,52.2461,11.7188,15.6250,66.4063,67.8711,25.8789,10.2539,60.0586,68.3594,10.7422,0.4883
1771936199138,AF7,13.1836,49.3164,53.2227,21.4844,10.7422,41.5039,71.2891,56.1523,31.7383,28.8086,41.5039,41.5039
1771936199184,TP10,57.1289,66.8945,9.7656,-1.4648,50.2930,85.9375,32.7148,-18.5547,13.6719,73.2422,20.9961,-54.1992
1771936199184,AF8,4.8828,14.1602,32.2266,39.5508,29.2969,20.0195,28.8086,34.6680,33.2031,28.8086,18.0664,16.6016
1771936199184,TP9,64.4531,88.3789,26.3672,-0.4883,39.0625,83.0078,45.4102,2.4414,29.2969,96.6797,72.2656,8.7891
1771936199184,AF7,28.3203,28.3203,41.0156,55.1758,48.8281,29.7852,40.0391,45.4102,33.6914,29.7852,38.0859,50.7813
1771936199227,AF8,25.8789,20.0195,20.5078,29.2969,24.9023,18.5547,20.0195,28.8086,46.3867,41.5039,23.4375,41.5039
1771936199227,TP10,-33.2031,31.7383,7.8125,-64.4531,-59.0820,13.1836,35.1563,-31.7383,-40.5273,17.5781,58.1055,21.4844
1771936199228,TP9,11.2305,72.2656,75.6836,11.7188,0.0000,48.3398,77.6367,30.7617,11.7188,50.2930,81.0547,48.3398
1771936199229,AF7,46.8750,37.1094,47.8516,48.3398,34.1797,26.8555,30.2734,43.4570,58.1055,63.9648,47.8516,39.0625
1771936199272,TP10,-14.6484,1.4648,55.1758,33.2031,-22.9492,-3.9063,47.8516,52.7344,-5.3711,-26.8555,24.9023,56.1523
1771936199272,AF8,47.8516,24.9023,5.3711,19.5313,41.5039,40.0391,20.9961,25.8789,45.8984,41.5039,24.9023,21.9727
1771936199273,TP9,22.4609,37.1094,69.3359,55.1758,12.2070,20.0195,74.7070,83.9844,29.7852,4.8828,36.6211,75.6836
1771936199274,AF7,56.1523,49.8047,20.9961,25.8789,42.9688,50.7813,42.4805,41.5039,55.1758,49.8047,32.2266,36.1328
1771936199318,TP10,4.8828,-31.2500,0.0000,45.4102,9.7656,-27.8320,-8.3008,56.6406,55.1758,-5.3711,-0.9766,54.6875
1771936199319,AF8,38.0859,38.5742,25.8789,17.5781,32.7148,48.3398,26.3672,17.0898,28.8086,37.1094,39.0625,14.1602
1771936199319,TP9,36.1328,-5.8594,22.4609,63.4766,34.1797,0.4883,14.1602,73.7305,67.3828,5.3711,7.3242,53.7109
1771936199319,AF7,59.0820,66.8945,45.4102,20.0195,41.0156,59.5703,37.1094,32.2266,48.8281,56.6406,59.5703,38.5742
1771936199362,TP10,64.4531,13.1836,-1.9531,40.0391,83.0078,33.2031,-15.1367,19.0430,67.3828,32.7148,-9.2773,8.7891
1771936199362,AF8,9.2773,34.6680,48.3398,34.1797,24.4141,40.0391,34.1797,22.4609,6.3477,14.1602,38.5742,38.5742
1771936199363,TP9,71.2891,31.7383,8.3008,36.6211,70.3125,47.3633,9.7656,31.2500,79.5898,59.0820,16.6016,21.4844
1771936199363,AF7,33.2031,55.1758,59.0820,42.4805,37.5977,56.1523,52.7344,41.0156,27.8320,41.0156,63.4766,56.1523
1771936199408,TP10,59.5703,48.8281,-13.1836,-6.8359,44.9219,71.2891,17.5781,-19.0430,29.2969,66.8945,13.1836,-21.4844
1771936199408,AF8,17.5781,22.4609,28.8086,23.4375,12.6953,7.8125,29.2969,34.1797,24.4141,18.0664,21.9727,26.8555
1771936199408,TP9,71.2891,65.4297,15.1367,18.0664,57.6172,79.5898,46.8750,15.1367,45.8984,84.9609,36.6211,3.4180
1771936199409,AF7,28.8086,28.3203,45.4102,47.3633,35.6445,36.6211,52.7344,54.1992,46.8750,36.1328,37.1094,39.0625
1771936199452,TP10,3.9063,52.7344,32.7148,-10.7422,10.7422,72.2656,54.6875,-19.5313,-29.2969,28.8086,62.5000,8.3008
1771936199452,AF8,14.6484,16.1133,39.5508,42.4805,33.2031,27.8320,22.4609,19.5313,24.9023,19.5313,20.0195,43.4570
1771936199453,TP9,26.8555,80.0781,68.8477,11.2305,9.7656,68.3594,75.6836,8.7891,0.9766,60.5469,83.0078,34.1797
1771936199453,AF7,21.9727,25.3906,51.2695,62.0117,42.4805,18.5547,24.4141,41.0156,54.1992,46.3867,46.8750,77.6367
1771936199512,TP10,-22.4609,12.6953,46.8750,1.9531,-35.6445,-5.3711,47.3633,21.4844,-27.8320,-22.9492,40.0391,57.1289
1771936199512,AF8,49.8047,37.5977,10.7422,15.6250,37.5977,38.0859,21.9727,31.2500,62.5000,51.7578,29.2969,38.5742
1771936199513,TP9,1.4648,29.7852,65.4297,30.2734,-3.4180,22.4609,67.3828,49.8047,0.4883,-4.8828,49.3164,67.3828
1771936199513,AF7,73.7305,35.6445,5.3711,16.6016,38.0859,46.8750,43.9453,45.4102,57.1289,50.7813,42.4805,43.4570
1771936199572,TP10,-3.4180,-31.2500,11.2305,50.2930,-0.4883,-35.6445,1.9531,41.9922,1.4648,-49.3164,-36.6211,28.8086
1771936199572,AF8,54.6875,55.6641,39.5508,35.6445,73.7305,92.7734,55.1758,25.3906,31.7383,43.9453,34.6680,31.2500
1771936199573,TP9,8.7891,-14.1602,28.3203,69.3359,27.3438,-17.0898,14.6484,54.6875,26.3672,-13.1836,-8.7891,51.7578
1771936199573,AF7,51.2695,58.5938,48.3398,41.9922,59.5703,72.2656,58.1055,31.2500,34.6680,53.7109,38.0859,28.8086
1771936199603,TP10,13.1836,-52.7344,-45.4102,21.9727,46.8750,-1.4648,-26.3672,23.9258,54.1992,2.4414,-20.9961,12.6953
1771936199603,AF8,48.8281,55.6641,42.4805,26.8555,32.7148,58.1055,53.7109,32.7148,29.2969,46.8750,51.7578,27.3438
1771936199604,TP9,45.8984,-12.2070,-7.3242,45.8984,66.8945,20.5078,-2.4414,45.8984,78.6133,28.3203,3.4180,34.6680
1771936199605,AF7,48.3398,50.7813,37.1094,25.8789,28.3203,50.2930,55.6641,38.5742,29.7852,48.8281,56.1523,36.6211
1771936199647,TP10,57.1289,17.0898,-25.8789,3.9063,66.8945,65.4297,3.4180,-2.9297,65.9180,75.6836,15.1367,-5.3711
1771936199647,AF8,23.4375,41.9922,41.0156,41.9922,41.9922,47.3633,42.4805,33.2031,39.5508,29.7852,27.3438,51.2695
1771936199648,TP9,94.2383,71.7773,16.6016,38.5742,102.5391,104.0039,41.5039,27.3438,92.2852,104.9805,43.4570,30.7617
1771936199648,AF7,31.2500,36.6211,45.4102,50.7813,45.8984,57.6172,54.1992,41.9922,41.9922,37.5977,41.9922,58.5938
1771936199692,TP10,50.7813,96.1914,40.5273,-4.8828,27.8320,86.4258,48.8281,7.8125,31.7383,76.6602,75.6836,18.0664
1771936199692,AF8,45.4102,8.7891,22.4609,40.5273,30.2734,20.0195,26.3672,58.1055,58.1055,18.0664,20.9961,39.0625
1771936199693,TP9,79.5898,111.3281,66.8945,26.3672,45.4102,94.2383,62.5000,27.3438,48.3398,89.3555,90.8203,29.7852
1771936199693,AF7,56.6406,34.6680,40.0391,54.6875,42.4805,32.7148,44.9219,62.5000,67.8711,37.5977,29.2969,51.2695
1771936199736,TP10,20.0195,58.5938,67.3828,20.9961,-0.4883,58.1055,103.5156,49.8047,4.3945,39.0625,99.6094,76.1719
1771936199737,AF8,40.5273,32.2266,32.7148,37.1094,27.8320,20.0195,11.2305,23.9258,36.1328,32.2266,27.8320,38.0859
1771936199738,TP9,11.2305,54.1992,86.9141,29.2969,-3.4180,49.3164,96.1914,61.5234,18.5547,37.5977,97.1680,85.4492
1771936199738,AF7,50.2930,22.9492,18.0664,41.5039,51.2695,38.5742,25.8789,38.5742,54.1992,53.2227,34.1797,36.6211
1771936199782,TP10,18.5547,14.6484,66.4063,62.5000,1.4648,13.6719,68.8477,79.1016,30.2734,9.7656,58.5938,103.0273
1771936199783,AF8,44.9219,30.2734,15.6250,14.1602,27.8320,43.9453,30.7617,12.6953,34.6680,50.7813,29.7852,13.1836
1771936199783,TP9,29.2969,21.4844,71.2891,74.2188,21.4844,16.1133,64.9414,89.8438,42.4805,19.5313,52.2461,93.7500
1771936199784,AF7,54.6875,41.9922,14.1602,14.1602,32.2266,40.0391,32.7148,25.8789,44.9219,60.5469,51.2695,26.3672
1771936199828,TP10,45.8984,6.8359,41.0156,89.8438,63.9648,20.9961,20.0195,60.5469,74.7070,16.6016,-0.9766,47.8516
1771936199828,AF8,19.5313,34.1797,30.2734,17.0898,18.0664,36.1328,41.0156,24.4141,27.3438,42.9688,45.8984,24.9023
1771936199829,TP9,50.2930,9.7656,38.5742,89.3555,70.8008,24.9023,23.4375,65.9180,82.0313,25.3906,2.4414,45.8984
1771936199830,AF7,13.1836,30.7617,38.0859,31.7383,41.9922,57.1289,48.3398,27.8320,34.6680,46.8750,39.5508,22.4609
1771936199872,TP10,79.5898,30.7617,0.4883,22.9492,55.1758,31.2500,-4.3945,17.0898,73.2422,59.0820,-2.9297,-3.4180
1771936199888,AF8,-0.9766,17.5781,35.6445,25.8789,13.1836,27.8320,41.0156,27.3438,11.2305,14.6484,26.8555,30.2734
1771936199888,TP9,84.4727,47.3633,18.0664,37.1094,69.3359,62.9883,24.4141,25.8789,79.1016,68.3594,8.3008,-0.9766
1771936199888,AF7,21.9727,46.3867,58.5938,40.5273,18.5547,36.6211,56.6406,50.7813,33.6914,22.9492,25.3906,29.7852
1771936199933,TP10,61.5234,74.2188,16.6016,2.9297,55.6641,85.9375,27.8320,-14.6484,17.0898,75.1953,36.1328,-10.2539
1771936199933,AF8,21.9727,23.4375,34.6680,37.5977,35.6445,11.7188,13.1836,25.8789,17.0898,20.9961,24.4141,39.0625
1771936199933,TP9,64.9414,91.7969,25.8789,0.4883,50.2930,87.4023,43.4570,4.8828,28.8086,78.6133,38.5742,-9.2773
1771936199934,AF7,26.3672,34.6680,44.9219,45.8984,39.0625,27.3438,47.3633,50.2930,28.8086,21.9727,30.7617,45.4102
1771936199977,TP10,19.0430,75.1953,55.6641,3.9063,6.3477,56.6406,75.1953,14.6484,2.4414,49.3164,73.7305,24.4141
1771936199977,AF8,54.1992,21.9727,8.3008,26.8555,27.3438,8.3008,7.8125,32.7148,43.9453,35.1563,13.1836,12.2070
1771936199978,TP9,21.9727,79.5898,71.2891,11.2305,-1.9531,54.1992,75.6836,16.1133,1.4648,48.8281,71.2891,27.8320
1771936199979,AF7,59.0820,49.3164,30.7617,34.1797,45.4102,40.5273,29.2969,35.1563,52.7344,53.7109,35.1563,32.2266
1771936200023,TP10,-17.0898,7.8125,60.5469,45.4102,-5.8594,1.4648,57.6172,71.7773,17.5781,-11.7188,36.6211,64.4531
1771936200023,AF8,22.9492,13.6719,-4.8828,6.8359,22.9492,26.3672,19.0430,25.3906,33.6914,23.9258,4.8828,0.9766
1771936200023,TP9,-8.3008,6.3477,60.0586,48.3398,4.8828,20.0195,64.9414,74.2188,29.7852,-12.2070,23.4375,61.5234
1771936200024,AF7,26.8555,16.6016,7.3242,18.0664,36.6211,37.1094,25.8789,30.2734,30.2734,9.7656,-13.1836,-14.1602
1771936200099,TP10,18.0664,3.9063,34.6680,77.1484,35.1563,-14.6484,20.9961,86.4258,49.8047,-25.8789,-10.2539,72.7539
1771936200099,AF8,24.9023,30.7617,25.8789,28.3203,26.3672,27.8320,34.1797,34.1797,37.5977,31.7383,34.1797,32.2266
1771936200099,TP9,29.2969,1.9531,30.7617,87.4023,47.8516,-2.9297,26.3672,89.3555,71.7773,4.8828,3.4180,58.1055
1771936200099,AF7,13.1836,31.7383,15.6250,9.2773,23.9258,22.4609,19.0430,16.6016,16.1133,17.5781,10.2539,6.3477
1771936200114,TP10,77.6367,2.4414,-2.4414,55.6641,87.8906,26.8555,-18.5547,15.1367,69.8242,36.1328,-6.8359,1.9531
1771936200114,AF8,16.6016,24.4141,30.7617,12.2070,6.3477,24.4141,34.6680,31.2500,26.3672,41.5039,55.1758,29.2969
1771936200114,TP9,66.4063,10.7422,0.4883,47.3633,73.2422,23.9258,-7.3242,24.4141,79.5898,51.2695,4.3945,14.1602
1771936200114,AF7,4.3945,6.8359,13.1836,1.4648,-7.8125,8.7891,14.1602,8.7891,5.3711,23.4375,40.0391,13.1836
1771936200157,TP10,54.6875,41.9922,-9.2773,10.2539,64.9414,68.8477,-1.9531,-27.8320,14.6484,57.6172,18.0664,-12.6953
1771936200157,AF8,8.7891,18.5547,36.1328,30.2734,0.0000,1.4648,25.8789,35.1563,26.3672,16.6016,28.3203,37.1094
1771936200158,TP9,63.4766,62.5000,19.5313,11.7188,47.8516,74.2188,26.8555,-4.8828,28.3203,69.3359,33.6914,4.3945
1771936200159,AF7,-14.6484,-5.8594,14.1602,16.1133,1.4648,-2.9297,5.3711,11.7188,7.8125,6.3477,23.9258,34.1797
1771936200201,TP10,10.7422,67.3828,44.9219,-22.4609,5.8594,80.0781,58.5938,-15.1367,-9.7656,66.8945,84.9609,25.8789
1771936200202,AF8,12.2070,0.9766,25.8789,31.7383,20.9961,11.7188,21.9727,32.2266,32.2266,33.2031,30.7617,31.7383
1771936200203,TP9,15.6250,64.4531,59.0820,5.8594,5.8594,75.6836,90.3320,10.2539,-3.9063,79.1016,101.5625,30.2734
1771936200203,AF7,8.3008,-17.0898,-8.3008,14.1602,15.1367,2.4414,14.1602,22.9492,16.1133,12.2070,11.7188,31.7383
1771936200262,TP10,3.4180,42.4805,79.5898,29.2969,0.4883,42.9688,80.5664,27.3438,-29.2969,0.9766,68.3594,64.9414
1771936200262,AF8,30.7617,27.8320,24.4141,28.8086,36.6211,52.2461,37.1094,22.4609,34.6680,26.3672,14.6484,31.2500
1771936200263,TP9,4.8828,63.4766,103.0273,41.0156,-12.2070,22.4609,81.0547,56.1523,1.4648,7.3242,65.4297,67.8711
1771936200264,AF7,34.1797,15.6250,8.7891,21.9727,27.8320,26.8555,14.1602,13.6719,30.2734,25.8789,11.7188,10.7422
1771936200309,AF8,52.7344,52.7344,24.4141,5.3711,23.9258,40.0391,23.9258,14.1602,28.3203,35.1563,20.9961,0.9766
1771936200309,TP9,31.2500,30.2734,64.9414,83.9844,36.1328,5.3711,33.2031,68.8477,34.6680,1.4648,13.1836,54.1992
1771936200309,AF7,39.5508,66.4063,37.5977,4.8828,20.9961,33.6914,20.5078,5.3711,18.5547,37.1094,24.4141,3.9063
1771936200309,TP10,16.6016,15.1367,50.2930,60.0586,5.8594,-17.5781,20.0195,46.3867,6.3477,-25.3906,-12.6953,33.2031
1771936200352,TP10,27.3438,-12.6953,-1.4648,56.6406,53.7109,-15.1367,-31.2500,17.0898,49.8047,-17.5781,-64.4531,-9.7656
1771936200352,AF8,15.6250,33.6914,38.0859,19.5313,8.7891,34.1797,37.5977,24.9023,29.2969,31.2500,29.7852,27.8320
1771936200353,TP9,43.4570,-4.8828,11.2305,70.3125,67.3828,9.7656,-22.4609,13.1836,65.9180,15.6250,-40.5273,10.7422
1771936200353,AF7,17.0898,40.5273,51.2695,33.6914,14.6484,26.3672,21.9727,4.3945,3.9063,13.6719,13.6719,14.1602
1771936200398,AF8,19.0430,34.6680,41.5039,33.6914,28.8086,29.7852,23.4375,21.9727,21.9727,20.0195,33.2031,42.9688
1771936200398,TP10,51.2695,16.1133,-43.9453,-17.0898,68.3594,42.4805,-39.0625,-26.8555,41.9922,45.4102,-15.1367,-10.7422
1771936200398,TP9,70.3125,37.5977,-9.2773,2.9297,62.5000,60.5469,0.4883,0.4883,69.3359,75.6836,15.1367,8.7891
1771936200399,AF7,16.6016,31.7383,42.4805,29.7852,26.3672,35.6445,19.0430,16.6016,14.6484,0.4883,11.7188,31.7383
1771936200442,TP10,41.5039,64.4531,14.6484,-3.4180,37.1094,76.6602,34.1797,-13.1836,14.6484,56.1523,50.7813,-0.9766
1771936200442,AF8,11.2305,-13.1836,10.2539,40.0391,31.2500,1.9531,12.6953,30.7617,22.4609,-5.8594,1.4648,31.2500
1771936200443,TP9,45.4102,74.2188,33.2031,3.9063,35.6445,83.0078,58.5938,14.6484,23.4375,67.8711,71.2891,20.5078
1771936200444,AF7,24.9023,8.7891,22.4609,46.3867,36.6211,5.3711,0.4883,18.5547,24.4141,0.0000,-2.9297,16.1133
1771936200486,TP10,-11.2305,51.2695,60.5469,0.0000,-19.5313,27.8320,75.1953,21.4844,-24.4141,14.1602,68.3594,36.6211
1771936200487,AF8,25.8789,10.7422,7.3242,16.1133,17.0898,12.6953,10.7422,22.9492,31.7383,21.9727,7.3242,15.6250
1771936200488,TP9,12.6953,70.8008,76.1719,13.1836,-10.2539,38.0859,95.2148,36.6211,-20.5078,6.3477,54.6875,44.4336
1771936200488,AF7,30.2734,29.7852,5.8594,1.9531,9.2773,10.7422,10.2539,19.5313,29.7852,17.5781,-3.4180,4.8828
1771936200533,TP10,-22.9492,2.9297,70.8008,46.3867,-19.5313,-15.6250,52.2461,76.1719,-6.3477,-37.5977,16.1133,63.4766
1771936200533,AF8,26.3672,31.7383,26.3672,19.5313,35.1563,43.4570,33.2031,27.8320,35.1563,31.2500,15.1367,8.7891
1771936200534,TP9,-9.7656,-1.4648,63.9648,49.8047,-19.5313,-16.1133,52.7344,75.1953,11.2305,-11.2305,26.8555,71.7773
1771936200535,AF7,25.8789,34.6680,24.4141,10.2539,9.7656,13.6719,22.9492,25.3906,22.9492,27.3438,22.9492,14.1602
1771936200593,TP10,12.6953,-36.1328,-1.4648,58.5938,38.0859,-2.9297,6.8359,36.6211,36.6211,-15.1367,-34.1797,6.3477
1771936200593,AF8,13.6719,22.9492,29.7852,19.0430,23.9258,50.2930,46.8750,12.6953,10.7422,31.7383,32.7148,16.6016
1771936200594,TP9,30.7617,-14.6484,6.8359,60.5469,52.2461,13.1836,21.9727,53.7109,46.3867,5.8594,0.9766,42.9688
1771936200595,AF7,18.0664,25.3906,30.7617,20.9961,22.9492,50.2930,59.5703,33.6914,21.9727,28.8086,20.9961,11.7188
1771936200638,TP10,34.1797,-11.7188,-32.2266,0.4883,52.2461,39.0625,-6.3477,8.3008,56.1523,48.8281,-0.4883,-8.7891
1771936200638,AF8,18.0664,44.9219,44.4336,10.7422,-2.9297,26.3672,44.4336,26.8555,4.3945,16.1133,41.0156,42.9688
1771936200638,TP9,77.6367,44.9219,26.3672,35.1563,77.1484,69.3359,20.5078,12.6953,48.3398,62.5000,22.4609,5.3711
1771936200638,AF7,16.1133,34.6680,41.9922,27.3438,15.6250,37.1094,56.1523,34.1797,3.4180,16.1133,44.9219,41.5039
1771936200681,TP10,51.7578,66.8945,5.3711,-7.3242,53.2227,88.3789,21.4844,-16.1133,24.4141,73.2422,26.3672,-27.8320
1771936200697,AF8,20.9961,15.1367,34.1797,32.2266,25.3906,30.2734,30.7617,36.6211,53.7109,42.4805,31.2500,35.1563
1771936200697,TP9,49.8047,73.2422,22.9492,4.3945,61.5234,97.1680,37.5977,2.9297,43.9453,92.7734,60.5469,2.9297
1771936200698,AF7,16.6016,20.5078,36.6211,31.2500,28.8086,28.8086,28.8086,31.2500,35.6445,27.8320,32.2266,44.9219
1771936200727,TP10,-2.4414,47.3633,27.8320,-27.3438,-20.0195,45.4102,52.7344,-15.1367,-25.8789,8.3008,29.2969,-17.5781
1771936200727,AF8,34.1797,25.8789,32.7148,45.4102,41.0156,39.5508,43.4570,45.4102,44.4336,26.8555,25.8789,46.3867
1771936200728,TP9,10.2539,59.5703,57.1289,11.2305,15.1367,70.3125,80.0781,26.3672,9.2773,50.2930,85.4492,28.3203
1771936200729,AF7,32.7148,12.6953,17.0898,30.7617,42.4805,43.4570,30.2734,29.7852,46.3867,50.2930,39.0625,33.2031
1771936200774,TP10,-53.2227,-30.7617,10.7422,-19.5313,-66.8945,-46.3867,5.3711,-5.8594,-66.8945,-76.6602,-12.2070,12.2070
1771936200774,TP9,-6.8359,18.5547,65.9180,56.1523,9.2773,21.9727,85.4492,95.7031,20.5078,-2.4414,54.1992,76.1719
1771936200774,AF8,44.9219,28.3203,13.6719,30.2734,53.7109,51.7578,37.5977,43.9453,45.4102,37.1094,28.8086,21.9727
1771936200774,AF7,42.4805,40.5273,31.7383,41.5039,47.8516,41.5039,38.0859,50.7813,52.7344,31.7383,17.5781,39.5508
1771936200818,TP10,-40.5273,-49.3164,-4.3945,32.7148,-10.2539,-36.1328,-0.9766,62.9883,47.3633,-18.0664,-14.6484,39.5508
1771936200818,AF8,40.5273,61.5234,43.4570,24.4141,41.0156,54.6875,32.7148,15.6250,35.1563,41.5039,28.3203,6.3477
1771936200819,TP9,24.9023,6.8359,43.4570,82.5195,45.4102,7.3242,24.4141,75.6836,69.3359,21.9727,27.8320,76.1719
1771936200820,AF7,60.0586,49.8047,41.0156,40.5273,38.0859,36.6211,29.7852,21.9727,40.5273,62.9883,50.2930,24.9023
1771936200862,TP10,36.1328,-38.0859,-52.2461,21.4844,69.3359,17.0898,-8.7891,51.7578,85.9375,19.0430,-25.8789,-6.8359
1771936200862,AF8,20.9961,45.4102,37.5977,21.4844,14.1602,33.6914,47.3633,40.5273,15.1367,7.3242,26.3672,28.8086
1771936200863,TP9,92.7734,52.7344,19.0430,60.0586,104.9805,46.3867,18.5547,80.0781,111.8164,59.0820,16.6016,27.3438
1771936200863,AF7,32.7148,41.9922,34.6680,26.3672,28.3203,43.9453,52.2461,64.9414,46.3867,25.8789,33.2031,22.9492
1771936200906,TP10,48.8281,34.1797,-22.4609,-20.0195,35.6445,49.3164,-3.4180,-26.8555,14.6484,51.2695,-0.4883,-43.9453
1771936200907,AF8,15.6250,23.9258,37.5977,25.3906,11.2305,20.5078,49.3164,44.4336,6.3477,10.7422,39.5508,39.5508
1771936200908,TP9,80.0781,73.7305,41.5039,37.1094,83.0078,91.3086,27.3438,10.7422,34.1797,89.8438,59.5703,-3.4180
1771936200908,AF7,16.6016,32.2266,43.9453,37.5977,27.8320,26.3672,44.4336,47.3633,19.0430,26.8555,50.2930,38.5742
1771936200954,AF7,16.6016,6.8359,26.8555,48.3398,43.9453,25.3906,39.5508,56.1523,39.0625,26.8555,26.3672,29.7852
1771936200954,TP9,14.1602,73.2422,56.6406,4.8828,9.7656,69.8242,75.1953,6.8359,-18.5547,49.3164,76.6602,15.6250
1771936200954,TP10,-13.1836,44.9219,17.0898,-37.5977,-20.9961,46.3867,40.0391,-21.4844,-29.2969,28.3203,49.3164,-7.3242
1771936200954,AF8,22.4609,11.7188,23.4375,40.0391,28.8086,19.5313,39.0625,50.2930,38.0859,35.1563,32.7148,26.8555
1771936201012,TP10,-28.3203,32.2266,76.6602,10.7422,-25.8789,15.1367,68.8477,45.8984,2.9297,16.1133,75.6836,66.4063
1771936201012,AF8,28.8086,44.9219,43.9453,43.9453,55.1758,55.6641,41.9922,41.9922,55.1758,43.9453,24.9023,26.8555
1771936201013,TP9,-2.4414,47.3633,83.4961,32.7148,-7.3242,40.5273,80.0781,37.5977,3.4180,25.8789,93.2617,72.2656
1771936201013,AF7,40.0391,49.3164,38.5742,44.4336,58.5938,54.1992,39.5508,35.1563,49.3164,46.3867,27.8320,37.1094
1771936201057,TP10,11.7188,22.4609,69.8242,81.0547,30.2734,9.7656,56.6406,103.0273,56.1523,17.0898,38.5742,89.8438
1771936201057,AF8,53.7109,57.6172,32.7148,19.5313,25.8789,36.1328,34.1797,33.2031,44.4336,40.0391,20.9961,8.7891
1771936201058,TP9,11.2305,10.7422,56.6406,87.8906,49.3164,28.3203,60.5469,95.7031,77.1484,38.5742,39.0625,86.4258
1771936201059,AF7,47.3633,45.4102,34.6680,20.5078,36.1328,46.3867,30.2734,20.9961,45.8984,53.7109,30.2734,18.5547
1771936201102,TP10,74.7070,19.0430,25.8789,101.5625,102.0508,29.7852,12.2070,54.1992,95.7031,48.3398,1.4648,44.9219
1771936201102,AF8,24.4141,37.1094,38.0859,28.3203,32.7148,41.9922,21.9727,0.4883,12.2070,36.6211,28.8086,19.5313
1771936201103,TP9,75.1953,19.0430,23.4375,100.0977,104.4922,29.2969,10.2539,62.0117,105.9570,53.2227,6.8359,40.5273
1771936201103,AF7,43.4570,54.1992,38.5742,41.0156,55.1758,65.9180,53.2227,22.9492,34.1797,64.4531,49.8047,29.7852
1771936201146,TP10,93.7500,47.8516,13.1836,34.1797,82.0313,66.8945,10.2539,12.6953,76.6602,72.7539,13.6719,16.1133
1771936201147,AF8,20.0195,34.6680,40.5273,24.9023,12.2070,17.5781,22.4609,23.4375,33.6914,17.5781,16.1133,33.6914
1771936201147,TP9,92.2852,71.7773,32.2266,39.5508,93.7500,85.9375,24.4141,11.2305,66.8945,67.8711,16.1133,21.9727
1771936201149,AF7,31.7383,61.5234,73.7305,47.3633,20.0195,20.5078,34.1797,36.1328,23.9258,16.6016,36.1328,62.0117
1771936201192,TP10,51.7578,80.5664,45.4102,3.4180,37.1094,88.8672,44.4336,8.7891,24.4141,74.2188,62.9883,0.0000
1771936201193,AF8,10.7422,-3.9063,18.5547,37.1094,28.3203,-2.9297,2.4414,40.5273,41.5039,8.3008,9.7656,38.5742
1771936201193,TP9,53.2227,82.5195,44.4336,6.3477,36.1328,74.2188,44.4336,8.3008,26.3672,75.1953,70.8008,17.5781
1771936201194,AF7,41.9922,20.5078,35.1563,30.2734,9.7656,2.9297,17.5781,30.2734,28.8086,16.6016,19.5313,31.7383
1771936201236,TP10,-3.9063,48.3398,66.4063,20.9961,1.9531,38.5742,70.8008,24.4141,-11.2305,18.5547,76.1719,47.3633
1771936201237,AF8,31.2500,0.0000,11.7188,38.0859,32.2266,20.5078,24.9023,40.0391,31.7383,10.7422,7.3242,16.6016
1771936201238,TP9,-5.8594,44.9219,78.1250,23.4375,-9.2773,28.3203,70.3125,32.2266,-3.4180,21.4844,74.7070,53.7109
1771936201238,AF7,31.2500,20.0195,33.6914,48.3398,26.8555,0.9766,-0.9766,32.2266,42.4805,21.4844,6.8359,16.6016
1771936201283,TP10,-18.5547,-7.3242,68.8477,54.1992,-23.9258,-0.4883,65.4297,62.0117,-5.3711,-29.7852,20.5078,69.8242
1771936201283,AF8,33.2031,35.6445,15.1367,8.3008,23.9258,34.6680,20.9961,6.3477,10.2539,22.9492,26.3672,12.2070
1771936201284,TP9,1.4648,2.4414,72.7539,70.8008,-3.9063,12.2070,73.2422,68.8477,0.9766,-20.9961,19.0430,57.1289
1771936201285,AF7,32.2266,32.2266,23.4375,14.1602,26.3672,44.4336,25.8789,4.8828,13.1836,26.8555,26.8555,20.9961
1771936201342,TP10,12.6953,-41.0156,12.2070,75.6836,40.5273,-10.2539,-4.3945,46.8750,48.3398,1.4648,-4.8828,41.0156
1771936201342,AF8,9.2773,17.5781,21.4844,18.0664,26.3672,34.1797,34.6680,15.1367,5.3711,28.8086,23.9258,12.6953
1771936201343,TP9,20.5078,-12.6953,29.2969,87.8906,49.3164,-11.2305,14.1602,68.3594,68.3594,18.0664,-6.3477,41.9922
1771936201343,AF7,25.3906,37.1094,36.6211,27.3438,34.6680,42.4805,41.5039,23.9258,24.4141,36.6211,24.9023,20.0195
1771936201387,TP10,69.8242,12.2070,-18.0664,16.1133,55.6641,26.3672,-20.5078,-1.4648,70.8008,57.1289,-13.1836,-22.4609
1771936201387,AF8,23.4375,39.0625,40.5273,28.3203,10.7422,23.4375,44.9219,40.5273,27.3438,40.5273,51.2695,30.7617
1771936201388,TP9,84.4727,47.8516,13.6719,36.6211,76.1719,53.2227,8.7891,15.6250,77.6367,72.7539,14.6484,3.4180
1771936201388,AF7,33.6914,56.1523,51.7578,30.7617,24.4141,45.4102,51.7578,40.5273,46.3867,62.9883,53.2227,21.9727
1771936201431,TP10,39.5508,62.0117,3.9063,-12.6953,51.2695,85.9375,18.5547,-18.5547,26.8555,80.5664,33.6914,-19.0430
1771936201432,AF8,18.0664,27.3438,38.0859,38.0859,26.8555,31.2500,52.2461,48.8281,37.1094,33.6914,21.9727,27.8320
1771936201433,TP9,65.9180,92.7734,40.0391,15.1367,56.6406,93.2617,57.1289,19.5313,36.6211,96.6797,63.9648,1.9531
1771936201433,AF7,11.2305,29.2969,43.9453,39.5508,30.7617,30.7617,46.8750,48.3398,34.6680,27.3438,39.0625,52.2461
1771936201477,TP10,3.9063,56.6406,43.9453,-16.1133,-10.2539,59.5703,56.6406,-10.7422,-21.9727,28.3203,52.7344,-9.2773
1771936201477,AF8,49.3164,25.8789,9.7656,28.3203,46.3867,42.9688,26.8555,29.2969,48.3398,41.5039,8.7891,14.6484
1771936201492,TP9,22.9492,72.2656,54.6875,0.0000,10.7422,76.6602,81.0547,18.5547,13.6719,62.5000,78.6133,32.2266
1771936201492,AF7,45.8984,25.3906,21.4844,30.2734,44.4336,46.3867,36.1328,40.5273,50.2930,40.0391,17.5781,29.2969
1771936201521,TP10,-34.1797,4.8828,40.0391,9.2773,-46.3867,-20.5078,50.2930,23.4375,-46.3867,-50.2930,10.2539,47.3633
1771936201522,AF8,37.1094,32.7148,22.4609,34.6680,41.9922,39.5508,23.4375,16.6016,39.0625,42.4805,21.4844,23.9258
1771936201523,TP9,-1.9531,28.3203,79.1016,47.3633,5.3711,24.9023,70.8008,68.3594,23.4375,17.0898,55.1758,80.5664
1771936201523,AF7,47.3633,42.9688,25.8789,30.2734,40.5273,62.0117,56.6406,27.3438,28.8086,31.7383,24.9023,30.2734
1771936201568,TP10,-9.2773,-48.8281,12.6953,62.0117,1.4648,-35.6445,12.6953,69.3359,23.4375,-35.1563,-1.9531,56.6406
1771936201568,AF8,45.4102,42.9688,30.7617,17.0898,25.3906,43.9453,44.9219,30.7617,33.6914,35.6445,27.3438,15.6250
1771936201569,TP9,37.5977,-0.9766,42.4805,99.6094,59.0820,6.8359,28.8086,81.0547,61.5234,-5.3711,-1.4648,65.9180
1771936201570,AF7,47.3633,47.8516,43.4570,41.5039,41.5039,43.9453,43.9453,30.2734,33.2031,38.0859,33.2031,29.7852
1771936201613,TP10,65.4297,5.8594,-8.7891,48.3398,59.5703,0.4883,-24.9023,21.4844,57.6172,11.2305,-22.4609,-6.3477
1771936201613,AF8,26.8555,34.6680,44.9219,43.4570,19.5313,20.9961,39.5508,43.9453,28.8086,35.1563,41.5039,22.4609
1771936201613,TP9,65.9180,6.8359,13.1836,65.9180,86.4258,30.2734,-5.8594,41.0156,77.1484,39.0625,8.3008,19.5313
1771936201614,AF7,38.0859,48.8281,63.4766,58.1055,36.6211,28.8086,31.2500,39.5508,22.9492,26.3672,47.3633,37.5977
1771936201657,TP10,52.2461,45.4102,-17.0898,-15.6250,59.0820,75.6836,15.1367,10.2539,56.1523,66.4063,19.0430,-11.2305
